Wavelength Scan - Scanning,,,,,,,,,,,
,,,,,,,,,,,
Instrument Name:,,,DU 800 Spectrophotometer,,,,,,,,
Serial Number:,,,8002850,,,,,,,,
Software Version:,,,"2.1,  Build 5",,,,,,,,
Firmware Version:,,,2.0.102,,,,,,,,
Method Name:,,,LTER Chl,,,,,,,,
Organization:,,,,,,,,,,,
Department:,,,,,,,,,,,
Operator:,,,,,,,,,,,
Product Name:,,,,,,,,,,,
Component Name:,,,,,,,,,,,
Lot Number:,,,,,,,,,,,
Comment:,,,,,,,,,,,
Signature 1:,,,,,,,,,,,
Signature 2:,,,,,,,,,,,
Signature 3:,,,,,,,,,,,
Signature 4:,,,,,,,,,,,
Signature 5:,,,,,,,,,,,
,,,,,,,,,,,
#,Filename,Acquired,,,,,,,,,
1,,3/2/22 10:00,,,,,,,,,
,,,,,,,,,,,
Scan Mode:,,,Abs,,,,,,,,
Start Wavelength:,,,600.0 nm,,,,,,,,
End Wavelength:,,,775.0 nm,,,,,,,,
Wavelength Interval:,,,0.5 nm,,,,,,,,
Scan Speed:,,,600 nm/min,,,,,,,,
,,,,,,,,,,,
,Sample Name,,Description,,,,,,,,
1,ALC_220209,,100,,,,,,,,
2,DOBA5_220209,,150,,,,,,,,
3,DOBA4_220209,,73,,,,,,,,
4,DCSW3_220209,,360,,,,,,,,
5,DCSW1_220209,,400,,,,,,,,
6,DCSW2_220209,,300,,,,,,,,
7,CAP_220209,,100,,,,,,,,
8,HP_220209,,300,,,,,,,,
9,L60_220209,,110,,,,,,,,
10,MDT_220210,,200,,,,,,,,
11,BLA,,3000,,,,,,,,
,,,,,,,,,,,
nm,Abs 1,Abs 2,Abs 3,Abs 4,Abs 5,Abs 6,Abs 7,Abs 8,Abs 9,Abs 10,Abs 11
600,0.0256,0.0873,0.1915,0.0336,0.0434,0.0186,0.1035,0.0191,0.033,0.0519,0.0046
600.5,0.0256,0.088,0.194,0.0338,0.0433,0.0188,0.1042,0.0191,0.0333,0.0526,0.0046
601,0.0257,0.0888,0.1968,0.0339,0.0433,0.0189,0.105,0.0191,0.0336,0.0533,0.0046
601.5,0.0257,0.0895,0.1989,0.034,0.0432,0.019,0.1056,0.0191,0.034,0.0539,0.0046
602,0.0257,0.09,0.201,0.0341,0.0432,0.0191,0.1062,0.0191,0.0342,0.0545,0.0046
602.5,0.0257,0.0906,0.2032,0.0343,0.0432,0.0191,0.1068,0.0191,0.0345,0.0551,0.0046
603,0.0257,0.0911,0.2047,0.0343,0.0431,0.0192,0.1072,0.0191,0.0347,0.0554,0.0046
603.5,0.0258,0.0915,0.2062,0.0344,0.0431,0.0193,0.1077,0.0192,0.0349,0.0558,0.0046
604,0.0257,0.0918,0.2076,0.0345,0.0431,0.0194,0.1081,0.0192,0.035,0.0562,0.0046
604.5,0.0257,0.092,0.2085,0.0345,0.043,0.0194,0.1083,0.0192,0.0351,0.0564,0.0046
605,0.0257,0.0922,0.2093,0.0345,0.043,0.0194,0.1085,0.0192,0.0352,0.0567,0.0046
605.5,0.0256,0.0923,0.2099,0.0345,0.043,0.0194,0.1086,0.0191,0.0353,0.0569,0.0046
606,0.0256,0.0923,0.2102,0.0345,0.043,0.0195,0.1087,0.0192,0.0353,0.057,0.0046
606.5,0.0255,0.0923,0.2103,0.0345,0.043,0.0195,0.1087,0.0191,0.0353,0.057,0.0046
607,0.0255,0.0921,0.2101,0.0344,0.0429,0.0195,0.1086,0.0191,0.0353,0.057,0.0046
607.5,0.0254,0.0919,0.2097,0.0343,0.0429,0.0195,0.1084,0.019,0.0352,0.0569,0.0045
608,0.0253,0.0917,0.2091,0.0342,0.0429,0.0195,0.1083,0.019,0.0351,0.0568,0.0045
608.5,0.0253,0.0912,0.2082,0.0341,0.0429,0.0195,0.1079,0.019,0.035,0.0566,0.0046
609,0.0251,0.0908,0.2072,0.034,0.0428,0.0194,0.1075,0.0189,0.0349,0.0563,0.0045
609.5,0.0251,0.0904,0.2061,0.0339,0.0428,0.0194,0.1072,0.0189,0.0347,0.0561,0.0046
610,0.025,0.0898,0.2045,0.0337,0.0428,0.0193,0.1067,0.0188,0.0345,0.0557,0.0046
610.5,0.0248,0.0892,0.2031,0.0336,0.0428,0.0193,0.1062,0.0188,0.0343,0.0553,0.0045
611,0.0247,0.0884,0.201,0.0334,0.0428,0.0192,0.1055,0.0187,0.0341,0.0548,0.0045
611.5,0.0246,0.0877,0.1991,0.0332,0.0427,0.0191,0.1048,0.0187,0.0338,0.0543,0.0045
612,0.0245,0.087,0.1972,0.033,0.0427,0.019,0.1042,0.0186,0.0336,0.0539,0.0045
612.5,0.0243,0.0862,0.1948,0.0328,0.0427,0.0189,0.1035,0.0185,0.0333,0.0533,0.0045
613,0.0241,0.0853,0.1926,0.0326,0.0427,0.0188,0.1027,0.0185,0.033,0.0528,0.0044
613.5,0.0241,0.0846,0.1903,0.0325,0.0427,0.0187,0.102,0.0184,0.0327,0.0522,0.0045
614,0.0239,0.0835,0.1875,0.0322,0.0426,0.0186,0.1011,0.0183,0.0323,0.0515,0.0044
614.5,0.0238,0.0826,0.1849,0.032,0.0426,0.0185,0.1002,0.0183,0.032,0.0508,0.0044
615,0.0236,0.0818,0.1826,0.0318,0.0426,0.0184,0.0995,0.0182,0.0316,0.0503,0.0044
615.5,0.0235,0.0807,0.1798,0.0316,0.0426,0.0183,0.0986,0.0181,0.0313,0.0496,0.0045
616,0.0234,0.0799,0.1774,0.0314,0.0426,0.0182,0.0977,0.0181,0.031,0.0489,0.0045
616.5,0.0233,0.079,0.1749,0.0313,0.0425,0.0181,0.097,0.018,0.0307,0.0483,0.0044
617,0.0231,0.0779,0.1719,0.031,0.0424,0.0179,0.0959,0.0179,0.0303,0.0476,0.0044
617.5,0.023,0.077,0.1695,0.0308,0.0425,0.0178,0.0952,0.0179,0.03,0.047,0.0044
618,0.0229,0.0763,0.1673,0.0306,0.0424,0.0176,0.0944,0.0178,0.0297,0.0465,0.0044
618.5,0.0228,0.0753,0.1647,0.0304,0.0423,0.0175,0.0936,0.0177,0.0293,0.0458,0.0044
619,0.0227,0.0746,0.1625,0.0303,0.0423,0.0174,0.0929,0.0177,0.0291,0.0452,0.0044
619.5,0.0226,0.0738,0.1605,0.0301,0.0422,0.0172,0.0922,0.0177,0.0288,0.0447,0.0044
620,0.0224,0.0729,0.158,0.0299,0.0421,0.017,0.0914,0.0176,0.0285,0.044,0.0044
620.5,0.0223,0.0722,0.1561,0.0298,0.042,0.0169,0.0908,0.0175,0.0282,0.0435,0.0044
621,0.0222,0.0715,0.1541,0.0296,0.042,0.0168,0.0902,0.0175,0.028,0.043,0.0044
621.5,0.0221,0.0708,0.1525,0.0295,0.0419,0.0167,0.0896,0.0174,0.0278,0.0425,0.0044
622,0.022,0.0703,0.1509,0.0293,0.0419,0.0165,0.0891,0.0174,0.0276,0.0421,0.0044
622.5,0.0219,0.0697,0.1493,0.0293,0.0419,0.0164,0.0886,0.0174,0.0274,0.0417,0.0044
623,0.0218,0.0691,0.1479,0.0291,0.0417,0.0163,0.0881,0.0173,0.0271,0.0413,0.0043
623.5,0.0217,0.0686,0.1467,0.029,0.0418,0.0162,0.0878,0.0173,0.027,0.041,0.0044
624,0.0217,0.0682,0.1456,0.029,0.0417,0.0161,0.0873,0.0173,0.0269,0.0407,0.0043
624.5,0.0216,0.0678,0.1447,0.0289,0.0417,0.016,0.0871,0.0173,0.0267,0.0404,0.0043
625,0.0216,0.0675,0.1439,0.0289,0.0416,0.016,0.0868,0.0173,0.0267,0.0402,0.0044
625.5,0.0215,0.0671,0.1431,0.0288,0.0416,0.0159,0.0865,0.0172,0.0266,0.04,0.0043
626,0.0215,0.0669,0.1426,0.0287,0.0415,0.0158,0.0864,0.0172,0.0265,0.0398,0.0043
626.5,0.0214,0.0666,0.1421,0.0287,0.0414,0.0157,0.0862,0.0171,0.0264,0.0396,0.0043
627,0.0214,0.0665,0.1418,0.0286,0.0414,0.0157,0.0861,0.0171,0.0264,0.0395,0.0043
627.5,0.0213,0.0663,0.1416,0.0286,0.0414,0.0157,0.086,0.0171,0.0263,0.0394,0.0043
628,0.0213,0.0662,0.1415,0.0286,0.0413,0.0157,0.0859,0.0171,0.0263,0.0393,0.0043
628.5,0.0213,0.0661,0.1415,0.0286,0.0413,0.0157,0.0859,0.0171,0.0263,0.0393,0.0043
629,0.0213,0.0661,0.1416,0.0286,0.0412,0.0157,0.0859,0.0171,0.0264,0.0392,0.0043
629.5,0.0212,0.066,0.1417,0.0286,0.0412,0.0157,0.0859,0.0171,0.0264,0.0392,0.0042
630,0.0212,0.066,0.1419,0.0286,0.0412,0.0158,0.086,0.0171,0.0265,0.0391,0.0043
630.5,0.0213,0.066,0.1421,0.0286,0.0412,0.0158,0.0861,0.0171,0.0265,0.0391,0.0042
631,0.0213,0.0661,0.1426,0.0286,0.0412,0.0159,0.0863,0.0172,0.0266,0.039,0.0043
631.5,0.0213,0.0662,0.1429,0.0287,0.0412,0.016,0.0864,0.0171,0.0266,0.0389,0.0042
632,0.0213,0.0663,0.1434,0.0287,0.0412,0.0161,0.0866,0.0171,0.0267,0.0389,0.0043
632.5,0.0213,0.0665,0.1439,0.0288,0.0411,0.0161,0.0868,0.0171,0.0269,0.0388,0.0042
633,0.0213,0.0666,0.1444,0.0288,0.0411,0.0162,0.087,0.0172,0.0269,0.0387,0.0042
633.5,0.0214,0.0668,0.1449,0.0288,0.0411,0.0163,0.0873,0.0172,0.0271,0.0387,0.0042
634,0.0214,0.067,0.1455,0.0289,0.041,0.0164,0.0876,0.0172,0.0272,0.0388,0.0043
634.5,0.0215,0.0672,0.1461,0.0289,0.041,0.0165,0.0878,0.0172,0.0273,0.0389,0.0043
635,0.0215,0.0674,0.1469,0.029,0.0409,0.0166,0.0882,0.0172,0.0275,0.0391,0.0042
635.5,0.0215,0.0676,0.1476,0.0291,0.0409,0.0167,0.0885,0.0172,0.0276,0.0393,0.0042
636,0.0216,0.0679,0.1483,0.0291,0.0409,0.0169,0.0889,0.0173,0.0278,0.0395,0.0042
636.5,0.0217,0.0683,0.1493,0.0292,0.0409,0.0171,0.0893,0.0173,0.028,0.0399,0.0042
637,0.0218,0.0686,0.1503,0.0293,0.0408,0.0172,0.0897,0.0173,0.0282,0.0402,0.0042
637.5,0.0218,0.069,0.1515,0.0294,0.0408,0.0174,0.0902,0.0173,0.0285,0.0406,0.0042
638,0.0219,0.0695,0.1527,0.0295,0.0408,0.0176,0.0907,0.0174,0.0288,0.041,0.0042
638.5,0.022,0.0699,0.154,0.0296,0.0407,0.0178,0.0913,0.0174,0.029,0.0414,0.0042
639,0.0221,0.0706,0.1557,0.0298,0.0407,0.018,0.092,0.0175,0.0294,0.042,0.0042
639.5,0.0222,0.0711,0.1572,0.0299,0.0407,0.0182,0.0925,0.0176,0.0296,0.0425,0.0042
640,0.0224,0.0718,0.1591,0.0301,0.0408,0.0185,0.0932,0.0176,0.03,0.0431,0.0041
640.5,0.0225,0.0727,0.1615,0.0303,0.0408,0.0187,0.0942,0.0177,0.0304,0.0439,0.0041
641,0.0226,0.0735,0.1638,0.0305,0.0408,0.019,0.0951,0.0177,0.0309,0.0447,0.0042
641.5,0.0229,0.0746,0.1669,0.0308,0.0407,0.0193,0.0963,0.0178,0.0315,0.0456,0.0042
642,0.023,0.0756,0.1697,0.031,0.0408,0.0196,0.0973,0.0179,0.032,0.0465,0.0042
642.5,0.0232,0.0766,0.1726,0.0312,0.0408,0.0199,0.0983,0.018,0.0325,0.0474,0.0042
643,0.0234,0.0781,0.1769,0.0316,0.0408,0.0203,0.0999,0.0181,0.0332,0.0487,0.0042
643.5,0.0236,0.0795,0.1806,0.0319,0.0407,0.0206,0.1012,0.0181,0.0339,0.0498,0.0041
644,0.0239,0.0813,0.1857,0.0324,0.0408,0.021,0.103,0.0183,0.0348,0.0513,0.0042
644.5,0.0242,0.0829,0.1904,0.0328,0.0408,0.0214,0.1047,0.0184,0.0356,0.0527,0.0042
645,0.0244,0.0846,0.1952,0.0331,0.0408,0.0218,0.1064,0.0184,0.0364,0.0541,0.0041
645.5,0.0247,0.0868,0.2012,0.0336,0.0408,0.0222,0.1085,0.0186,0.0374,0.0559,0.0041
646,0.025,0.0889,0.2073,0.0341,0.0408,0.0227,0.1106,0.0187,0.0384,0.0577,0.0041
646.5,0.0253,0.0912,0.2136,0.0346,0.0408,0.0231,0.1128,0.0189,0.0395,0.0595,0.0041
647,0.0257,0.094,0.2219,0.0353,0.0409,0.0236,0.1156,0.019,0.0409,0.0619,0.0041
647.5,0.026,0.0967,0.2294,0.0359,0.0409,0.0241,0.1182,0.0192,0.0421,0.0641,0.0041
648,0.0264,0.0999,0.2386,0.0366,0.0409,0.0247,0.1213,0.0194,0.0435,0.0667,0.0041
648.5,0.0268,0.1027,0.2465,0.0372,0.0409,0.0251,0.124,0.0195,0.0448,0.069,0.0041
649,0.0272,0.106,0.2559,0.0379,0.041,0.0256,0.1271,0.0198,0.0463,0.0717,0.0041
649.5,0.0277,0.1102,0.2677,0.0388,0.0409,0.0262,0.1311,0.0199,0.0481,0.075,0.0041
650,0.0281,0.1138,0.278,0.0396,0.041,0.0268,0.1346,0.0201,0.0497,0.0779,0.0041
650.5,0.0286,0.1185,0.2913,0.0406,0.0411,0.0273,0.139,0.0204,0.0517,0.0817,0.0041
651,0.029,0.1225,0.3029,0.0414,0.0412,0.0279,0.1428,0.0206,0.0535,0.0849,0.0041
651.5,0.0295,0.1265,0.3143,0.0422,0.0413,0.0283,0.1466,0.0208,0.0552,0.0881,0.0041
652,0.0301,0.132,0.3302,0.0434,0.0414,0.029,0.1519,0.0211,0.0576,0.0925,0.0041
652.5,0.0306,0.137,0.3444,0.0444,0.0415,0.0295,0.1565,0.0214,0.0597,0.0964,0.0041
653,0.0311,0.142,0.3588,0.0453,0.0416,0.03,0.1612,0.0217,0.0618,0.1004,0.0041
653.5,0.0318,0.1483,0.3771,0.0466,0.0416,0.0306,0.1672,0.022,0.0645,0.1054,0.0041
654,0.0323,0.1537,0.3924,0.0476,0.0417,0.0311,0.1722,0.0223,0.0667,0.1096,0.0041
654.5,0.0329,0.1601,0.4109,0.0489,0.0418,0.0317,0.1782,0.0226,0.0693,0.1147,0.0041
655,0.0335,0.166,0.4279,0.05,0.0419,0.0322,0.1837,0.0229,0.0718,0.1194,0.004
655.5,0.034,0.1721,0.4457,0.0512,0.0419,0.0328,0.1894,0.0232,0.0743,0.1242,0.004
656,0.0347,0.1796,0.4672,0.0526,0.042,0.0334,0.1963,0.0236,0.0774,0.1301,0.004
656.5,0.0353,0.1858,0.485,0.0538,0.0421,0.0339,0.202,0.0239,0.0798,0.135,0.004
657,0.0359,0.193,0.5059,0.0552,0.0422,0.0344,0.2087,0.0243,0.0828,0.1407,0.004
657.5,0.0364,0.199,0.5231,0.0563,0.0423,0.0349,0.2141,0.0245,0.0852,0.1455,0.004
658,0.037,0.2052,0.5412,0.0574,0.0424,0.0354,0.2199,0.0249,0.0877,0.1504,0.004
658.5,0.0376,0.2129,0.563,0.0589,0.0426,0.0359,0.2269,0.0253,0.0908,0.1564,0.004
659,0.0381,0.219,0.5804,0.06,0.0427,0.0363,0.2324,0.0255,0.0932,0.1612,0.004
659.5,0.0387,0.2257,0.5997,0.0612,0.0428,0.0367,0.2385,0.0259,0.0959,0.1666,0.004
660,0.0391,0.2312,0.6151,0.0622,0.0429,0.037,0.2434,0.0261,0.098,0.1709,0.004
660.5,0.0394,0.2362,0.629,0.0631,0.0429,0.0373,0.2478,0.0263,0.1,0.1749,0.004
661,0.0399,0.2421,0.6454,0.0641,0.043,0.0376,0.2529,0.0266,0.1023,0.1795,0.004
661.5,0.0402,0.2467,0.6581,0.0649,0.043,0.0378,0.257,0.0268,0.104,0.1832,0.004
662,0.0404,0.2516,0.6712,0.0657,0.043,0.038,0.261,0.027,0.1059,0.187,0.004
662.5,0.0405,0.2548,0.6795,0.0661,0.0429,0.038,0.2636,0.0271,0.107,0.1895,0.0039
663,0.0407,0.2576,0.6865,0.0666,0.043,0.0381,0.2658,0.0272,0.1081,0.1917,0.004
663.5,0.0407,0.2602,0.6926,0.0669,0.0429,0.0381,0.2676,0.0272,0.109,0.1937,0.004
664,0.0407,0.2618,0.6958,0.0671,0.0429,0.038,0.2685,0.0273,0.1095,0.1949,0.004
664.5,0.0406,0.2629,0.6973,0.0671,0.0429,0.0379,0.2688,0.0272,0.1098,0.1957,0.004
665,0.0404,0.2631,0.6959,0.0669,0.0428,0.0376,0.2683,0.0272,0.1096,0.1957,0.004
665.5,0.0401,0.2626,0.6929,0.0666,0.0428,0.0373,0.2671,0.027,0.1092,0.1952,0.0039
666,0.0397,0.2612,0.6869,0.0661,0.0428,0.0369,0.265,0.0269,0.1084,0.194,0.0039
666.5,0.0393,0.2594,0.6797,0.0656,0.0428,0.0365,0.2625,0.0268,0.1075,0.1924,0.004
667,0.0388,0.2563,0.6686,0.0647,0.0427,0.0359,0.2588,0.0265,0.106,0.1898,0.004
667.5,0.0382,0.2529,0.6567,0.0638,0.0426,0.0354,0.2548,0.0262,0.1043,0.1869,0.004
668,0.0375,0.2488,0.6429,0.0628,0.0425,0.0348,0.2501,0.0259,0.1024,0.1835,0.0039
668.5,0.0368,0.2435,0.6254,0.0615,0.0423,0.034,0.2443,0.0256,0.1,0.1792,0.0039
669,0.0362,0.2385,0.609,0.0603,0.0422,0.0333,0.2388,0.0253,0.0977,0.1751,0.0039
669.5,0.0352,0.2318,0.5877,0.0587,0.042,0.0324,0.2316,0.0249,0.0946,0.1696,0.0039
670,0.0345,0.2259,0.5689,0.0574,0.0417,0.0317,0.2253,0.0245,0.092,0.1647,0.0039
670.5,0.0337,0.2193,0.5483,0.0559,0.0415,0.0308,0.2183,0.0241,0.089,0.1592,0.0039
671,0.0326,0.2111,0.5232,0.0541,0.0413,0.0298,0.2097,0.0236,0.0854,0.1525,0.0039
671.5,0.0319,0.2048,0.5041,0.0527,0.0411,0.029,0.2032,0.0233,0.0825,0.1474,0.0039
672,0.031,0.197,0.4806,0.051,0.0409,0.0281,0.1952,0.0227,0.079,0.141,0.0039
672.5,0.0302,0.1901,0.4602,0.0495,0.0407,0.0272,0.1881,0.0223,0.076,0.1354,0.0039
673,0.0292,0.182,0.4362,0.0477,0.0404,0.0263,0.1798,0.0218,0.0724,0.1286,0.0039
673.5,0.0285,0.1748,0.4156,0.0462,0.0402,0.0255,0.1727,0.0214,0.0692,0.1229,0.0039
674,0.0277,0.1676,0.3947,0.0447,0.04,0.0246,0.1654,0.021,0.0661,0.117,0.0039
674.5,0.0268,0.1598,0.3724,0.0431,0.0398,0.0237,0.1576,0.0205,0.0626,0.1107,0.0039
675,0.0261,0.1535,0.3544,0.0418,0.0397,0.023,0.1514,0.0201,0.0599,0.1056,0.0039
675.5,0.0252,0.1455,0.3322,0.0403,0.0395,0.0221,0.1436,0.0197,0.0565,0.0992,0.0039
676,0.0246,0.1392,0.3146,0.0389,0.0393,0.0214,0.1374,0.0194,0.0538,0.0941,0.0039
676.5,0.0239,0.1328,0.2971,0.0377,0.0392,0.0208,0.1312,0.019,0.0511,0.089,0.0039
677,0.0231,0.1255,0.2768,0.0362,0.039,0.02,0.1241,0.0186,0.0479,0.0831,0.0039
677.5,0.0226,0.1201,0.2623,0.0352,0.0388,0.0194,0.1189,0.0183,0.0456,0.0788,0.0039
678,0.022,0.114,0.2459,0.0341,0.0386,0.0188,0.1131,0.018,0.043,0.0739,0.0039
678.5,0.0214,0.1087,0.2319,0.0331,0.0384,0.0182,0.108,0.0176,0.0408,0.0697,0.0038
679,0.0208,0.1028,0.2163,0.0319,0.0382,0.0176,0.1024,0.0173,0.0383,0.0651,0.0038
679.5,0.0204,0.098,0.204,0.0311,0.0381,0.0172,0.098,0.017,0.0363,0.0612,0.0039
680,0.02,0.0932,0.1919,0.0302,0.0379,0.0167,0.0935,0.0168,0.0343,0.0575,0.0038
680.5,0.0195,0.0883,0.1793,0.0293,0.0378,0.0163,0.0889,0.0165,0.0323,0.0536,0.0038
681,0.0191,0.0845,0.1699,0.0286,0.0377,0.0159,0.0854,0.0163,0.0307,0.0506,0.0038
681.5,0.0187,0.0798,0.1582,0.0278,0.0376,0.0154,0.0811,0.016,0.0288,0.0469,0.0038
682,0.0183,0.0761,0.1494,0.0271,0.0375,0.0151,0.0778,0.0158,0.0273,0.0441,0.0038
682.5,0.018,0.0727,0.1412,0.0265,0.0374,0.0148,0.0747,0.0156,0.0259,0.0415,0.0038
683,0.0176,0.0689,0.1322,0.0259,0.0373,0.0144,0.0713,0.0154,0.0244,0.0386,0.0038
683.5,0.0174,0.0662,0.1259,0.0255,0.0372,0.0142,0.0689,0.0154,0.0234,0.0365,0.0038
684,0.0171,0.0633,0.1192,0.025,0.0371,0.0139,0.0663,0.0151,0.0223,0.0343,0.0038
684.5,0.0169,0.0609,0.1136,0.0247,0.0371,0.0137,0.0642,0.015,0.0213,0.0325,0.0037
685,0.0166,0.0583,0.1077,0.0243,0.037,0.0135,0.0619,0.0149,0.0203,0.0305,0.0038
685.5,0.0165,0.0562,0.1033,0.024,0.037,0.0133,0.0602,0.0148,0.0195,0.029,0.0038
686,0.0163,0.0543,0.099,0.0237,0.0369,0.0131,0.0585,0.0146,0.0188,0.0275,0.0038
686.5,0.0161,0.0523,0.0947,0.0234,0.0369,0.0129,0.0568,0.0145,0.0181,0.026,0.0038
687,0.016,0.0509,0.0916,0.0233,0.0369,0.0128,0.0556,0.0145,0.0176,0.025,0.0038
687.5,0.0159,0.049,0.0877,0.023,0.0367,0.0127,0.054,0.0143,0.0169,0.0236,0.0037
688,0.0158,0.0476,0.0848,0.0229,0.0367,0.0126,0.0528,0.0143,0.0164,0.0226,0.0037
688.5,0.0156,0.0462,0.0817,0.0227,0.0367,0.0125,0.0516,0.0142,0.0158,0.0216,0.0038
689,0.0155,0.045,0.0793,0.0225,0.0366,0.0124,0.0506,0.0141,0.0154,0.0207,0.0037
689.5,0.0154,0.0439,0.0772,0.0224,0.0365,0.0123,0.0497,0.014,0.015,0.0199,0.0037
690,0.0153,0.0428,0.075,0.0223,0.0364,0.0122,0.0488,0.0139,0.0147,0.0191,0.0037
690.5,0.0152,0.0419,0.0732,0.0222,0.0364,0.0122,0.0481,0.0139,0.0143,0.0185,0.0037
691,0.0151,0.0409,0.0712,0.0221,0.0363,0.0121,0.0472,0.0139,0.014,0.0178,0.0037
691.5,0.015,0.0401,0.0696,0.022,0.0362,0.012,0.0466,0.0138,0.0137,0.0173,0.0037
692,0.0149,0.0392,0.0679,0.0219,0.0361,0.0119,0.0458,0.0138,0.0134,0.0167,0.0037
692.5,0.0148,0.0385,0.0667,0.022,0.036,0.0119,0.0453,0.0137,0.0132,0.0162,0.0037
693,0.0147,0.0379,0.0654,0.0219,0.0359,0.0118,0.0447,0.0137,0.0129,0.0157,0.0037
693.5,0.0147,0.0373,0.0643,0.0219,0.0359,0.0118,0.0443,0.0137,0.0127,0.0153,0.0037
694,0.0146,0.0367,0.0633,0.0218,0.0358,0.0117,0.0438,0.0136,0.0125,0.015,0.0037
694.5,0.0146,0.0361,0.0622,0.0218,0.0356,0.0116,0.0432,0.0136,0.0123,0.0145,0.0037
695,0.0145,0.0356,0.0614,0.0218,0.0356,0.0116,0.0429,0.0135,0.0121,0.0143,0.0037
695.5,0.0145,0.0351,0.0604,0.0218,0.0355,0.0116,0.0424,0.0135,0.012,0.0139,0.0037
696,0.0144,0.0347,0.0597,0.0218,0.0354,0.0116,0.042,0.0134,0.0118,0.0136,0.0037
696.5,0.0144,0.0342,0.0588,0.0217,0.0353,0.0116,0.0417,0.0134,0.0117,0.0133,0.0037
697,0.0143,0.0338,0.0581,0.0217,0.0352,0.0115,0.0413,0.0134,0.0115,0.0131,0.0037
697.5,0.0143,0.0334,0.0574,0.0217,0.0352,0.0115,0.041,0.0134,0.0114,0.0129,0.0037
698,0.0142,0.033,0.0567,0.0217,0.0352,0.0115,0.0407,0.0133,0.0112,0.0126,0.0037
698.5,0.0142,0.0327,0.0561,0.0217,0.0352,0.0115,0.0404,0.0132,0.0111,0.0124,0.0037
699,0.0141,0.0324,0.0555,0.0216,0.0351,0.0115,0.0401,0.0132,0.011,0.0122,0.0037
699.5,0.0141,0.032,0.0549,0.0216,0.0351,0.0114,0.0399,0.0132,0.0109,0.012,0.0037
700,0.0141,0.0317,0.0543,0.0216,0.0351,0.0114,0.0396,0.0132,0.0109,0.0118,0.0037
700.5,0.014,0.0314,0.0539,0.0216,0.035,0.0114,0.0394,0.0131,0.0108,0.0117,0.0037
701,0.0139,0.0311,0.0534,0.0216,0.0349,0.0114,0.0392,0.013,0.0107,0.0115,0.0036
701.5,0.0139,0.0309,0.0531,0.0215,0.0348,0.0114,0.039,0.013,0.0107,0.0114,0.0037
702,0.0138,0.0307,0.0528,0.0215,0.0348,0.0113,0.0388,0.013,0.0106,0.0112,0.0037
702.5,0.0138,0.0304,0.0523,0.0214,0.0347,0.0114,0.0386,0.0129,0.0105,0.0111,0.0037
703,0.0137,0.0302,0.052,0.0214,0.0346,0.0114,0.0383,0.0129,0.0105,0.0109,0.0037
703.5,0.0137,0.0299,0.0515,0.0214,0.0345,0.0114,0.0381,0.0129,0.0105,0.0108,0.0037
704,0.0136,0.0296,0.0512,0.0213,0.0344,0.0114,0.038,0.0128,0.0104,0.0106,0.0036
704.5,0.0135,0.0294,0.0508,0.0213,0.0343,0.0114,0.0378,0.0128,0.0104,0.0105,0.0036
705,0.0135,0.0292,0.0505,0.0213,0.0342,0.0114,0.0376,0.0128,0.0104,0.0104,0.0036
705.5,0.0134,0.029,0.0501,0.0212,0.0341,0.0114,0.0374,0.0127,0.0103,0.0102,0.0036
706,0.0133,0.0288,0.0498,0.0211,0.034,0.0113,0.0372,0.0127,0.0104,0.0101,0.0036
706.5,0.0132,0.0285,0.0494,0.0211,0.0339,0.0113,0.037,0.0126,0.0103,0.01,0.0036
707,0.0132,0.0284,0.0491,0.0211,0.0338,0.0112,0.0369,0.0126,0.0103,0.0099,0.0036
707.5,0.0132,0.0282,0.0488,0.021,0.0338,0.0112,0.0368,0.0125,0.0104,0.0098,0.0037
708,0.0132,0.028,0.0485,0.021,0.0337,0.0112,0.0366,0.0125,0.0104,0.0097,0.0036
708.5,0.0131,0.0278,0.0481,0.0209,0.0336,0.0112,0.0365,0.0124,0.0103,0.0097,0.0036
709,0.013,0.0276,0.0479,0.0209,0.0336,0.0112,0.0363,0.0124,0.0104,0.0095,0.0036
709.5,0.013,0.0276,0.0477,0.0209,0.0335,0.0112,0.0362,0.0124,0.0104,0.0095,0.0036
710,0.0129,0.0273,0.0474,0.0209,0.0335,0.0113,0.0361,0.0124,0.0104,0.0094,0.0036
710.5,0.0129,0.0272,0.0472,0.0208,0.0334,0.0113,0.0359,0.0123,0.0104,0.0094,0.0036
711,0.0128,0.027,0.0469,0.0208,0.0334,0.0113,0.0358,0.0123,0.0104,0.0092,0.0036
711.5,0.0128,0.0269,0.0467,0.0208,0.0333,0.0112,0.0357,0.0123,0.0104,0.0092,0.0036
712,0.0127,0.0267,0.0464,0.0208,0.0332,0.0112,0.0355,0.0122,0.0104,0.0091,0.0036
712.5,0.0127,0.0266,0.0462,0.0208,0.0332,0.0112,0.0354,0.0122,0.0104,0.009,0.0036
713,0.0127,0.0264,0.046,0.0207,0.0331,0.0111,0.0353,0.0121,0.0104,0.0089,0.0036
713.5,0.0127,0.0263,0.0458,0.0207,0.0331,0.0111,0.0352,0.0122,0.0104,0.0089,0.0036
714,0.0126,0.0262,0.0456,0.0207,0.033,0.011,0.0351,0.0122,0.0104,0.0089,0.0036
714.5,0.0126,0.0261,0.0454,0.0207,0.033,0.0109,0.035,0.0121,0.0105,0.0088,0.0036
715,0.0126,0.0259,0.0452,0.0207,0.0328,0.0109,0.0349,0.0121,0.0104,0.0087,0.0036
715.5,0.0126,0.0258,0.045,0.0207,0.0328,0.0109,0.0348,0.0121,0.0104,0.0087,0.0036
716,0.0125,0.0257,0.0449,0.0207,0.0327,0.0109,0.0346,0.0121,0.0104,0.0086,0.0036
716.5,0.0126,0.0256,0.0447,0.0207,0.0326,0.0108,0.0346,0.0121,0.0104,0.0086,0.0036
717,0.0125,0.0255,0.0445,0.0207,0.0324,0.0108,0.0345,0.0121,0.0104,0.0086,0.0036
717.5,0.0125,0.0254,0.0443,0.0207,0.0324,0.0108,0.0344,0.0121,0.0104,0.0085,0.0036
718,0.0125,0.0253,0.0441,0.0206,0.0322,0.0108,0.0343,0.012,0.0104,0.0084,0.0036
718.5,0.0125,0.0252,0.0439,0.0206,0.0322,0.0107,0.0342,0.0119,0.0103,0.0084,0.0036
719,0.0125,0.0252,0.0438,0.0207,0.0321,0.0108,0.0341,0.012,0.0103,0.0084,0.0036
719.5,0.0124,0.0251,0.0437,0.0206,0.032,0.0107,0.034,0.0119,0.0103,0.0083,0.0035
720,0.0125,0.025,0.0436,0.0207,0.0319,0.0107,0.0339,0.0119,0.0103,0.0083,0.0035
720.5,0.0124,0.0249,0.0434,0.0207,0.0318,0.0107,0.0338,0.0118,0.0103,0.0083,0.0035
721,0.0124,0.0249,0.0432,0.0207,0.0318,0.0108,0.0337,0.0119,0.0103,0.0083,0.0036
721.5,0.0124,0.0248,0.0431,0.0207,0.0317,0.0108,0.0336,0.0118,0.0103,0.0082,0.0035
722,0.0124,0.0248,0.043,0.0207,0.0317,0.0109,0.0336,0.0118,0.0103,0.0082,0.0035
722.5,0.0124,0.0247,0.0428,0.0207,0.0317,0.0109,0.0335,0.0118,0.0103,0.0082,0.0035
723,0.0123,0.0246,0.0425,0.0206,0.0316,0.0109,0.0334,0.0117,0.0103,0.0081,0.0035
723.5,0.0123,0.0246,0.0425,0.0207,0.0316,0.0109,0.0333,0.0117,0.0103,0.0081,0.0035
724,0.0124,0.0246,0.0423,0.0207,0.0317,0.011,0.0332,0.0117,0.0103,0.0081,0.0035
724.5,0.0123,0.0245,0.0421,0.0207,0.0316,0.0109,0.0331,0.0117,0.0103,0.008,0.0035
725,0.0123,0.0244,0.0419,0.0207,0.0316,0.0109,0.033,0.0116,0.0102,0.0079,0.0035
725.5,0.0124,0.0244,0.0419,0.0208,0.0316,0.011,0.033,0.0117,0.0103,0.008,0.0035
726,0.0124,0.0244,0.0417,0.0208,0.0316,0.011,0.0329,0.0117,0.0103,0.008,0.0035
726.5,0.0124,0.0243,0.0415,0.0208,0.0315,0.0109,0.0329,0.0116,0.0102,0.0079,0.0035
727,0.0124,0.0243,0.0415,0.0208,0.0315,0.011,0.0328,0.0116,0.0102,0.0079,0.0035
727.5,0.0124,0.0242,0.0414,0.0208,0.0315,0.011,0.0327,0.0116,0.0102,0.0079,0.0035
728,0.0124,0.0242,0.0413,0.0208,0.0314,0.011,0.0327,0.0115,0.0102,0.0079,0.0035
728.5,0.0125,0.0242,0.0412,0.0208,0.0314,0.0111,0.0326,0.0116,0.0102,0.0079,0.0035
729,0.0124,0.0241,0.041,0.0208,0.0314,0.0111,0.0325,0.0115,0.0101,0.0078,0.0034
729.5,0.0124,0.0241,0.041,0.0207,0.0313,0.011,0.0324,0.0115,0.0101,0.0078,0.0034
730,0.0125,0.024,0.0408,0.0207,0.0313,0.0111,0.0323,0.0115,0.01,0.0077,0.0034
730.5,0.0125,0.0239,0.0407,0.0206,0.0312,0.011,0.0322,0.0114,0.01,0.0077,0.0034
731,0.0125,0.0239,0.0406,0.0206,0.0312,0.011,0.0321,0.0114,0.01,0.0077,0.0034
731.5,0.0124,0.0238,0.0404,0.0205,0.0311,0.011,0.0321,0.0113,0.01,0.0076,0.0034
732,0.0125,0.0237,0.0403,0.0206,0.0312,0.011,0.032,0.0114,0.01,0.0076,0.0034
732.5,0.0125,0.0236,0.0402,0.0205,0.0311,0.011,0.0319,0.0113,0.0099,0.0076,0.0035
733,0.0125,0.0235,0.04,0.0204,0.031,0.011,0.0317,0.0112,0.0098,0.0075,0.0034
733.5,0.0125,0.0234,0.0397,0.0203,0.0309,0.0109,0.0316,0.0112,0.0098,0.0074,0.0034
734,0.0125,0.0233,0.0396,0.0203,0.0309,0.0108,0.0315,0.0111,0.0097,0.0074,0.0034
734.5,0.0125,0.0233,0.0395,0.0203,0.0309,0.0109,0.0315,0.0111,0.0097,0.0073,0.0034
735,0.0123,0.0234,0.0391,0.0195,0.0303,0.0102,0.0311,0.0108,0.0091,0.0074,0.0036
735.5,0.0123,0.0234,0.039,0.0195,0.0302,0.01,0.0311,0.0107,0.009,0.0074,0.0035
736,0.0123,0.0233,0.0389,0.0194,0.0301,0.0099,0.031,0.0107,0.0089,0.0073,0.0035
736.5,0.0123,0.0232,0.0388,0.0192,0.03,0.0098,0.0309,0.0106,0.0088,0.0073,0.0035
737,0.0123,0.0231,0.0387,0.0192,0.0299,0.0097,0.0308,0.0106,0.0087,0.0073,0.0035
737.5,0.0123,0.0231,0.0387,0.0191,0.0299,0.0097,0.0307,0.0105,0.0086,0.0073,0.0036
738,0.0122,0.023,0.0386,0.019,0.0297,0.0096,0.0307,0.0105,0.0085,0.0073,0.0035
738.5,0.0122,0.0229,0.0385,0.0189,0.0297,0.0094,0.0306,0.0104,0.0084,0.0072,0.0035
739,0.0121,0.0229,0.0384,0.0188,0.0296,0.0093,0.0305,0.0104,0.0084,0.0072,0.0035
739.5,0.0121,0.0228,0.0383,0.0187,0.0295,0.0092,0.0305,0.0104,0.0084,0.0072,0.0035
740,0.012,0.0228,0.0381,0.0186,0.0294,0.009,0.0304,0.0104,0.0082,0.0071,0.0034
740.5,0.012,0.0227,0.0381,0.0185,0.0293,0.009,0.0303,0.0103,0.0082,0.0071,0.0034
741,0.0119,0.0226,0.038,0.0184,0.0293,0.009,0.0303,0.0103,0.0082,0.0071,0.0034
741.5,0.012,0.0226,0.0379,0.0184,0.0292,0.0089,0.0302,0.0103,0.0081,0.0071,0.0034
742,0.012,0.0225,0.0379,0.0183,0.0291,0.0089,0.0302,0.0102,0.0081,0.0071,0.0035
742.5,0.012,0.0225,0.0378,0.0183,0.0291,0.0089,0.0301,0.0102,0.008,0.0071,0.0035
743,0.0119,0.0224,0.0377,0.0182,0.029,0.0089,0.0301,0.0101,0.008,0.0071,0.0034
743.5,0.0119,0.0224,0.0376,0.0182,0.029,0.009,0.03,0.0101,0.008,0.0071,0.0035
744,0.0118,0.0223,0.0375,0.0181,0.029,0.0089,0.03,0.0101,0.0079,0.007,0.0034
744.5,0.0119,0.0222,0.0374,0.0181,0.0289,0.009,0.0299,0.01,0.0079,0.007,0.0034
745,0.0118,0.0222,0.0373,0.018,0.0289,0.009,0.0298,0.01,0.0079,0.007,0.0034
745.5,0.0118,0.0221,0.0372,0.0179,0.0289,0.009,0.0297,0.01,0.0078,0.007,0.0034
746,0.0118,0.0221,0.0372,0.0179,0.0288,0.009,0.0297,0.01,0.0078,0.007,0.0034
746.5,0.0117,0.022,0.0372,0.0178,0.0288,0.0091,0.0296,0.01,0.0078,0.0069,0.0034
747,0.0117,0.0219,0.0372,0.0178,0.0288,0.0092,0.0296,0.01,0.0078,0.007,0.0034
747.5,0.0116,0.0218,0.0371,0.0177,0.0288,0.0092,0.0295,0.01,0.0078,0.0069,0.0033
748,0.0116,0.0217,0.0371,0.0177,0.0287,0.0091,0.0294,0.0099,0.0078,0.0069,0.0034
748.5,0.0116,0.0217,0.037,0.0177,0.0287,0.0092,0.0293,0.0099,0.0077,0.0069,0.0034
749,0.0115,0.0216,0.037,0.0177,0.0287,0.0092,0.0293,0.0099,0.0078,0.0069,0.0034
749.5,0.0115,0.0215,0.0369,0.0177,0.0286,0.0091,0.0292,0.0099,0.0077,0.0069,0.0034
750,0.0114,0.0214,0.0369,0.0177,0.0285,0.0091,0.0291,0.0099,0.0076,0.0069,0.0033
750.5,0.0114,0.0213,0.0368,0.0178,0.0285,0.0091,0.0291,0.0099,0.0077,0.0068,0.0034
751,0.0113,0.0212,0.0367,0.0178,0.0286,0.0091,0.029,0.0099,0.0076,0.0068,0.0033
751.5,0.0113,0.0211,0.0367,0.0181,0.0286,0.0092,0.0289,0.0099,0.0076,0.0068,0.0034
752,0.0112,0.021,0.0366,0.0182,0.0285,0.0092,0.0288,0.0099,0.0076,0.0068,0.0033
752.5,0.0111,0.021,0.0364,0.0184,0.0286,0.0092,0.0287,0.0099,0.0076,0.0067,0.0033
753,0.0111,0.0208,0.0363,0.0186,0.0286,0.0092,0.0287,0.0099,0.0075,0.0067,0.0033
753.5,0.0111,0.0207,0.0362,0.0187,0.0287,0.0092,0.0286,0.0098,0.0074,0.0067,0.0033
754,0.0111,0.0206,0.0362,0.0188,0.0287,0.0093,0.0285,0.0098,0.0075,0.0067,0.0033
754.5,0.0111,0.0205,0.0362,0.0188,0.0288,0.0094,0.0285,0.0098,0.0075,0.0066,0.0033
755,0.011,0.0205,0.0362,0.0188,0.0288,0.0095,0.0285,0.0098,0.0075,0.0066,0.0033
755.5,0.011,0.0204,0.0361,0.0188,0.0289,0.0097,0.0284,0.0098,0.0075,0.0066,0.0033
756,0.011,0.0203,0.036,0.0189,0.029,0.0098,0.0283,0.0098,0.0075,0.0066,0.0033
756.5,0.011,0.0202,0.036,0.0188,0.029,0.0099,0.0282,0.0097,0.0075,0.0066,0.0033
757,0.0111,0.0201,0.036,0.0188,0.0292,0.0102,0.0282,0.0097,0.0076,0.0066,0.0033
757.5,0.011,0.02,0.0359,0.0187,0.0292,0.0104,0.0282,0.0097,0.0075,0.0066,0.0033
758,0.0109,0.0199,0.0358,0.0186,0.0292,0.0106,0.0281,0.0097,0.0076,0.0065,0.0033
758.5,0.011,0.0198,0.0358,0.0185,0.0293,0.011,0.028,0.0097,0.0076,0.0065,0.0033
759,0.011,0.0197,0.0357,0.0183,0.0294,0.0113,0.0279,0.0097,0.0076,0.0065,0.0033
759.5,0.0111,0.0197,0.0357,0.0182,0.0295,0.0115,0.0279,0.0097,0.0077,0.0065,0.0033
760,0.0111,0.0196,0.0356,0.018,0.0295,0.0117,0.0278,0.0097,0.0076,0.0065,0.0033
760.5,0.0112,0.0195,0.0355,0.0179,0.0296,0.0119,0.0278,0.0098,0.0076,0.0065,0.0033
761,0.0112,0.0194,0.0354,0.0178,0.0297,0.012,0.0277,0.0098,0.0077,0.0065,0.0033
761.5,0.0113,0.0194,0.0353,0.0177,0.0298,0.0122,0.0277,0.0098,0.0076,0.0065,0.0033
762,0.0113,0.0193,0.0352,0.0176,0.0298,0.0123,0.0276,0.0098,0.0076,0.0065,0.0032
762.5,0.0114,0.0194,0.0352,0.0176,0.0298,0.0124,0.0276,0.0099,0.0076,0.0065,0.0032
763,0.0115,0.0194,0.0351,0.0176,0.0298,0.0123,0.0275,0.0099,0.0075,0.0065,0.0033
763.5,0.0116,0.0194,0.0351,0.0175,0.0298,0.0122,0.0275,0.0098,0.0075,0.0065,0.0032
764,0.0117,0.0194,0.0351,0.0176,0.0298,0.0121,0.0275,0.0099,0.0075,0.0065,0.0033
764.5,0.0117,0.0194,0.0351,0.0175,0.0298,0.0118,0.0273,0.01,0.0074,0.0065,0.0032
765,0.0118,0.0194,0.0351,0.0175,0.0297,0.0115,0.0274,0.0101,0.0074,0.0065,0.0032
765.5,0.0119,0.0194,0.0351,0.0176,0.0296,0.0113,0.0273,0.0101,0.0073,0.0065,0.0032
766,0.0119,0.0195,0.0351,0.0176,0.0296,0.0114,0.0272,0.0102,0.0072,0.0065,0.0033
766.5,0.0119,0.0195,0.035,0.0176,0.0296,0.0116,0.0272,0.0102,0.0072,0.0065,0.0032
767,0.012,0.0196,0.035,0.0176,0.0295,0.0116,0.0272,0.0103,0.0072,0.0065,0.0032
767.5,0.0121,0.0196,0.0349,0.0176,0.0294,0.0116,0.0271,0.0104,0.0071,0.0065,0.0032
768,0.0122,0.0196,0.0349,0.0176,0.0293,0.0115,0.027,0.0104,0.0071,0.0065,0.0032
768.5,0.0122,0.0196,0.0349,0.0177,0.0292,0.0113,0.027,0.0104,0.0071,0.0065,0.0032
769,0.0123,0.0197,0.0349,0.0177,0.0293,0.0112,0.027,0.0105,0.0071,0.0066,0.0032
769.5,0.0123,0.0197,0.0349,0.0178,0.0293,0.0112,0.0269,0.0106,0.0072,0.0066,0.0032
770,0.0124,0.0196,0.0348,0.0178,0.0292,0.011,0.0269,0.0106,0.0071,0.0066,0.0032
770.5,0.0125,0.0196,0.0348,0.0178,0.0293,0.011,0.0268,0.0108,0.0071,0.0066,0.0032
771,0.0125,0.0196,0.0348,0.0178,0.0293,0.0108,0.0268,0.0109,0.007,0.0065,0.0032
771.5,0.0125,0.0196,0.0348,0.0178,0.0294,0.0105,0.0267,0.011,0.0069,0.0065,0.0032
772,0.0125,0.0197,0.0348,0.0178,0.0294,0.0103,0.0267,0.011,0.0069,0.0065,0.0032
772.5,0.0125,0.0197,0.0349,0.0178,0.0294,0.01,0.0266,0.0111,0.0068,0.0066,0.0032
773,0.0125,0.0197,0.0349,0.0177,0.0295,0.0098,0.0266,0.0112,0.0067,0.0065,0.0032
773.5,0.0124,0.0197,0.0349,0.0177,0.0295,0.0097,0.0265,0.0111,0.0066,0.0065,0.0032
774,0.0124,0.0197,0.0349,0.0176,0.0295,0.0096,0.0265,0.0111,0.0066,0.0065,0.0032
774.5,0.0122,0.0196,0.0349,0.0174,0.0295,0.0095,0.0263,0.0111,0.0064,0.0065,0.0032
775,0.0122,0.0196,0.0349,0.0174,0.0295,0.0095,0.0263,0.0111,0.0064,0.0065,0.0032