Wavelength Scan - Scanning,,,,,,,,,,,
,,,,,,,,,,,
Instrument Name:,,,DU 800 Spectrophotometer,,,,,,,,
Serial Number:,,,8002850,,,,,,,,
Software Version:,,,"2.1,  Build 5",,,,,,,,
Firmware Version:,,,2.0.102,,,,,,,,
Method Name:,,,LTER Chl,,,,,,,,
Organization:,,,,,,,,,,,
Department:,,,,,,,,,,,
Operator:,,,,,,,,,,,
Product Name:,,,,,,,,,,,
Component Name:,,,,,,,,,,,
Lot Number:,,,,,,,,,,,
Comment:,,,,,,,,,,,
Signature 1:,,,,,,,,,,,
Signature 2:,,,,,,,,,,,
Signature 3:,,,,,,,,,,,
Signature 4:,,,,,,,,,,,
Signature 5:,,,,,,,,,,,
,,,,,,,,,,,
#,Filename,Acquired,,,,,,,,,
1,,1/20/22 13:48,,,,,,,,,
,,,,,,,,,,,
Scan Mode:,,,Abs,,,,,,,,
Start Wavelength:,,,600.0 nm,,,,,,,,
End Wavelength:,,,775.0 nm,,,,,,,,
Wavelength Interval:,,,0.5 nm,,,,,,,,
Scan Speed:,,,600 nm/min,,,,,,,,
,,,,,,,,,,,
,Sample Name,,Description,,,,,,,,
1,UM-ARB_210630,,150,,,,,,,,
2,DOBA8_210630,,200,,,,,,,,
3,DOBA7_210629,,170,,,,,,,,
4,CAP_210701,,300,,,,,,,,
5,ELV_210630,,300,,,,,,,,
6,DCSW2_210701,,200,,,,,,,,
7,DOBA5_210701,,100,,,,,,,,
8,HP_210629,,300,,,,,,,,
9,KP_210702,,100,,,,,,,,
10,OPP-E_210629,,100,,,,,,,,
11,BLA,,3000,,,,,,,,
,,,,,,,,,,,
nm,Abs 1,Abs 2,Abs 3,Abs 4,Abs 5,Abs 6,Abs 7,Abs 8,Abs 9,Abs 10,Abs 11
600,0.0278,0.0128,0.0289,0.0275,0.0169,0.0118,0.0144,0.0073,0.0179,0.033,0.0063
600.5,0.0282,0.0129,0.0292,0.0277,0.017,0.0118,0.0146,0.0073,0.018,0.0334,0.0063
601,0.0288,0.0129,0.0296,0.0279,0.0171,0.012,0.0147,0.0074,0.0182,0.0339,0.0063
601.5,0.0292,0.013,0.0299,0.028,0.0172,0.012,0.0149,0.0074,0.0183,0.0343,0.0063
602,0.0297,0.0131,0.0302,0.0281,0.0173,0.0121,0.0151,0.0074,0.0185,0.0348,0.0063
602.5,0.0301,0.0131,0.0306,0.0283,0.0175,0.0121,0.0153,0.0074,0.0187,0.0353,0.0063
603,0.0304,0.0132,0.0309,0.0284,0.0176,0.0121,0.0154,0.0074,0.0188,0.0356,0.0063
603.5,0.0308,0.0133,0.0312,0.0286,0.0177,0.0122,0.0155,0.0074,0.019,0.036,0.0063
604,0.0313,0.0133,0.0315,0.0289,0.0178,0.0122,0.0157,0.0074,0.0191,0.0365,0.0063
604.5,0.0317,0.0134,0.0317,0.0292,0.0179,0.0121,0.0159,0.0074,0.0193,0.0369,0.0063
605,0.0321,0.0135,0.032,0.0293,0.018,0.0121,0.0161,0.0073,0.0194,0.0373,0.0063
605.5,0.0325,0.0136,0.0324,0.0295,0.0181,0.0121,0.0163,0.0073,0.0196,0.0378,0.0063
606,0.0328,0.0136,0.0326,0.0295,0.0182,0.0121,0.0165,0.0073,0.0196,0.038,0.0062
606.5,0.0331,0.0137,0.0329,0.0297,0.0183,0.0122,0.0167,0.0074,0.0198,0.0384,0.0063
607,0.0335,0.0137,0.0331,0.0297,0.0184,0.0123,0.0169,0.0075,0.0199,0.0388,0.0062
607.5,0.0338,0.0137,0.0334,0.0299,0.0185,0.0123,0.017,0.0075,0.02,0.0391,0.0062
608,0.0341,0.0139,0.0337,0.0299,0.0186,0.0124,0.0172,0.0075,0.0201,0.0395,0.0063
608.5,0.0345,0.0139,0.0339,0.0297,0.0187,0.0124,0.0172,0.0076,0.0201,0.0398,0.0062
609,0.0349,0.0139,0.0341,0.0296,0.0187,0.0125,0.0173,0.0076,0.0203,0.0401,0.0062
609.5,0.0352,0.014,0.0342,0.0294,0.0187,0.0126,0.0174,0.0076,0.0203,0.0403,0.0062
610,0.0355,0.0141,0.0345,0.0293,0.0189,0.0127,0.0175,0.0077,0.0205,0.0406,0.0062
610.5,0.0358,0.0141,0.0346,0.0291,0.0189,0.0127,0.0175,0.0077,0.0205,0.0408,0.0062
611,0.0361,0.0141,0.0348,0.0289,0.0189,0.0126,0.0176,0.0077,0.0205,0.041,0.0062
611.5,0.0363,0.0142,0.035,0.0288,0.019,0.0127,0.0177,0.0077,0.0206,0.0413,0.0062
612,0.0364,0.0142,0.035,0.0287,0.019,0.0125,0.0178,0.0077,0.0207,0.0414,0.0062
612.5,0.0367,0.0142,0.0351,0.0285,0.019,0.0123,0.0178,0.0077,0.0207,0.0416,0.0062
613,0.0369,0.0143,0.0352,0.0283,0.019,0.0122,0.0178,0.0077,0.0208,0.0418,0.0062
613.5,0.0368,0.0143,0.0352,0.0282,0.019,0.0122,0.0178,0.0077,0.0208,0.0419,0.0062
614,0.037,0.0144,0.0352,0.0281,0.0189,0.0121,0.0177,0.0078,0.0209,0.0421,0.0062
614.5,0.037,0.0145,0.0353,0.0278,0.0189,0.0121,0.0176,0.0078,0.0209,0.0421,0.0062
615,0.037,0.0145,0.0353,0.0277,0.0189,0.0121,0.0175,0.0078,0.0209,0.0422,0.0062
615.5,0.037,0.0146,0.0353,0.0274,0.0189,0.0121,0.0175,0.0078,0.021,0.0422,0.0062
616,0.0369,0.0146,0.0354,0.0271,0.0188,0.0121,0.0174,0.0078,0.0209,0.0422,0.0062
616.5,0.0369,0.0146,0.0354,0.027,0.0188,0.0122,0.0174,0.0077,0.021,0.0422,0.0062
617,0.0369,0.0147,0.0354,0.0269,0.0188,0.0122,0.0174,0.0077,0.021,0.0423,0.0062
617.5,0.0369,0.0147,0.0354,0.0269,0.0188,0.0122,0.0174,0.0078,0.0211,0.0423,0.0062
618,0.0368,0.0147,0.0354,0.0268,0.0188,0.0121,0.0173,0.0077,0.0211,0.0423,0.0062
618.5,0.0367,0.0147,0.0354,0.0267,0.0187,0.0121,0.0172,0.0077,0.0211,0.0422,0.0061
619,0.0366,0.0147,0.0354,0.0266,0.0188,0.012,0.0172,0.0078,0.0212,0.0422,0.0061
619.5,0.0366,0.0148,0.0352,0.0265,0.0188,0.012,0.0171,0.0077,0.0212,0.0421,0.0061
620,0.0365,0.0148,0.0352,0.0264,0.0188,0.012,0.0171,0.0078,0.0213,0.0421,0.0061
620.5,0.0364,0.0148,0.0352,0.0265,0.0188,0.012,0.0171,0.0078,0.0214,0.0421,0.0061
621,0.0363,0.0148,0.0351,0.0264,0.0188,0.0119,0.0171,0.0078,0.0214,0.0421,0.0062
621.5,0.0361,0.0147,0.0349,0.0264,0.0188,0.0118,0.017,0.0076,0.0214,0.042,0.0061
622,0.036,0.0147,0.0349,0.0264,0.0188,0.0119,0.017,0.0076,0.0215,0.042,0.0061
622.5,0.036,0.0146,0.0349,0.0263,0.0188,0.0118,0.0169,0.0076,0.0216,0.0419,0.0061
623,0.0358,0.0146,0.0348,0.0263,0.0189,0.0117,0.0169,0.0076,0.0217,0.0418,0.0061
623.5,0.0357,0.0146,0.0347,0.0261,0.0189,0.0116,0.0168,0.0077,0.0218,0.0418,0.0061
624,0.0355,0.0146,0.0347,0.026,0.0189,0.0117,0.0167,0.0078,0.0218,0.0417,0.0061
624.5,0.0353,0.0146,0.0347,0.0261,0.019,0.0117,0.0168,0.0079,0.0219,0.0417,0.0061
625,0.0352,0.0145,0.0346,0.026,0.019,0.0118,0.0167,0.008,0.0219,0.0416,0.0061
625.5,0.0351,0.0145,0.0346,0.0261,0.0191,0.0119,0.0168,0.008,0.022,0.0415,0.0061
626,0.0349,0.0145,0.0346,0.0261,0.0191,0.0119,0.0168,0.008,0.0221,0.0415,0.0061
626.5,0.0348,0.0145,0.0346,0.0261,0.0191,0.0119,0.0169,0.008,0.0222,0.0415,0.0061
627,0.0347,0.0145,0.0346,0.0261,0.0192,0.012,0.017,0.008,0.0223,0.0415,0.0061
627.5,0.0345,0.0144,0.0346,0.0261,0.0193,0.012,0.0171,0.008,0.0223,0.0416,0.0061
628,0.0343,0.0144,0.0346,0.0261,0.0192,0.012,0.0171,0.008,0.0224,0.0415,0.0061
628.5,0.0342,0.0143,0.0347,0.026,0.0194,0.012,0.0172,0.0081,0.0224,0.0416,0.0061
629,0.034,0.0143,0.0347,0.026,0.0194,0.012,0.0173,0.0081,0.0225,0.0416,0.0061
629.5,0.0339,0.0143,0.0348,0.026,0.0195,0.012,0.0174,0.0081,0.0226,0.0417,0.006
630,0.0339,0.0143,0.0349,0.0261,0.0195,0.0121,0.0176,0.0081,0.0226,0.0417,0.006
630.5,0.0339,0.0143,0.0349,0.0261,0.0196,0.0121,0.0177,0.0082,0.0227,0.0418,0.006
631,0.0339,0.0144,0.0351,0.0262,0.0197,0.0122,0.0179,0.0084,0.0228,0.0419,0.006
631.5,0.0339,0.0144,0.0352,0.0263,0.0197,0.0122,0.018,0.0085,0.0229,0.0421,0.006
632,0.0339,0.0144,0.0354,0.0266,0.0198,0.0122,0.0181,0.0086,0.0229,0.0422,0.006
632.5,0.0339,0.0144,0.0355,0.0268,0.0199,0.0123,0.0183,0.0087,0.023,0.0425,0.006
633,0.034,0.0144,0.0357,0.027,0.02,0.0124,0.0185,0.0089,0.0231,0.0426,0.0061
633.5,0.034,0.0144,0.0359,0.0273,0.02,0.0126,0.0186,0.0089,0.0231,0.0428,0.006
634,0.0341,0.0144,0.0361,0.0276,0.0201,0.0127,0.0188,0.009,0.0232,0.0431,0.006
634.5,0.0342,0.0145,0.0363,0.0277,0.0202,0.0129,0.0189,0.0091,0.0233,0.0433,0.006
635,0.0344,0.0145,0.0366,0.028,0.0203,0.013,0.0192,0.0093,0.0234,0.0437,0.006
635.5,0.0345,0.0145,0.0368,0.0282,0.0203,0.0131,0.0194,0.0094,0.0234,0.0441,0.006
636,0.0346,0.0145,0.037,0.0284,0.0204,0.0131,0.0196,0.0095,0.0235,0.0444,0.006
636.5,0.0348,0.0145,0.0374,0.0285,0.0206,0.0132,0.0199,0.0096,0.0237,0.0449,0.006
637,0.0349,0.0146,0.0377,0.0286,0.0207,0.0132,0.0201,0.0097,0.0238,0.0454,0.006
637.5,0.0351,0.0146,0.0381,0.0286,0.0209,0.0132,0.0205,0.0097,0.0239,0.046,0.0059
638,0.0353,0.0147,0.0386,0.0286,0.0211,0.0133,0.0208,0.0098,0.024,0.0466,0.006
638.5,0.0356,0.0149,0.039,0.0287,0.0212,0.0135,0.0211,0.0099,0.0242,0.0473,0.006
639,0.0358,0.0149,0.0395,0.0288,0.0214,0.0136,0.0215,0.01,0.0244,0.0481,0.006
639.5,0.0361,0.015,0.0399,0.0289,0.0217,0.0137,0.0218,0.0101,0.0245,0.0488,0.006
640,0.0363,0.0151,0.0404,0.0289,0.0218,0.0138,0.0222,0.0102,0.0247,0.0497,0.006
640.5,0.0367,0.0152,0.0411,0.0291,0.0221,0.0141,0.0226,0.0103,0.025,0.0508,0.0059
641,0.0371,0.0154,0.0418,0.0294,0.0224,0.0144,0.023,0.0104,0.0252,0.0519,0.006
641.5,0.0376,0.0155,0.0426,0.0297,0.0227,0.0147,0.0234,0.0105,0.0255,0.0532,0.006
642,0.0381,0.0157,0.0433,0.0299,0.0229,0.0148,0.0238,0.0105,0.0257,0.0543,0.0059
642.5,0.0386,0.0158,0.0439,0.0301,0.0232,0.015,0.0241,0.0106,0.026,0.0554,0.0059
643,0.0394,0.016,0.0449,0.0304,0.0236,0.0152,0.0246,0.0108,0.0263,0.0571,0.0059
643.5,0.0401,0.0162,0.0458,0.0307,0.024,0.0154,0.025,0.0109,0.0266,0.0586,0.0059
644,0.041,0.0164,0.047,0.0308,0.0245,0.0157,0.0255,0.011,0.0271,0.0604,0.0059
644.5,0.0419,0.0167,0.048,0.0311,0.025,0.0159,0.026,0.0113,0.0276,0.062,0.0059
645,0.0428,0.0169,0.0491,0.0315,0.0255,0.0161,0.0264,0.0114,0.0281,0.0637,0.0059
645.5,0.0439,0.0172,0.0504,0.0319,0.0261,0.0164,0.027,0.0116,0.0286,0.0658,0.0059
646,0.045,0.0175,0.0516,0.0322,0.0266,0.0168,0.0276,0.0118,0.0292,0.0678,0.0059
646.5,0.0462,0.0177,0.053,0.0325,0.0272,0.0172,0.0281,0.0119,0.0298,0.0699,0.0059
647,0.0477,0.0181,0.0547,0.033,0.0279,0.0176,0.0289,0.0121,0.0307,0.0725,0.0058
647.5,0.0491,0.0185,0.0563,0.0334,0.0287,0.0182,0.0295,0.0123,0.0314,0.0748,0.0059
648,0.0508,0.019,0.0581,0.034,0.0294,0.0187,0.0304,0.0125,0.0324,0.0776,0.0059
648.5,0.0523,0.0194,0.0597,0.0345,0.03,0.0191,0.031,0.0126,0.0331,0.0799,0.0058
649,0.054,0.0198,0.0616,0.0351,0.0307,0.0196,0.0318,0.0129,0.0341,0.0825,0.0058
649.5,0.0562,0.0203,0.0639,0.0358,0.0317,0.0203,0.0327,0.0132,0.0352,0.0857,0.0059
650,0.0582,0.0208,0.0659,0.0365,0.0324,0.0209,0.0335,0.0135,0.0363,0.0885,0.0058
650.5,0.0607,0.0215,0.0685,0.0374,0.0334,0.0217,0.0345,0.0139,0.0376,0.0919,0.0058
651,0.063,0.022,0.0707,0.038,0.0342,0.0224,0.0354,0.0142,0.0388,0.0948,0.0059
651.5,0.0651,0.0225,0.0729,0.0386,0.0351,0.0231,0.0362,0.0144,0.0399,0.0976,0.0058
652,0.0682,0.0232,0.0759,0.0394,0.0363,0.0239,0.0374,0.0149,0.0414,0.1014,0.0058
652.5,0.0709,0.0238,0.0785,0.0403,0.0373,0.0247,0.0385,0.0152,0.0428,0.1046,0.0058
653,0.0737,0.0244,0.0812,0.0411,0.0383,0.0254,0.0395,0.0155,0.044,0.1078,0.0058
653.5,0.0771,0.0252,0.0846,0.0421,0.0396,0.0264,0.0408,0.016,0.0457,0.1117,0.0058
654,0.0801,0.0258,0.0874,0.0429,0.0407,0.0271,0.0418,0.0164,0.047,0.1149,0.0058
654.5,0.0836,0.0266,0.0907,0.0439,0.042,0.028,0.043,0.0169,0.0487,0.1187,0.0058
655,0.0868,0.0272,0.0937,0.0447,0.0431,0.0286,0.0442,0.0174,0.0502,0.122,0.0058
655.5,0.0903,0.0279,0.0968,0.0457,0.0443,0.0294,0.0453,0.0179,0.0517,0.1253,0.0058
656,0.0944,0.0288,0.1007,0.0469,0.0458,0.0305,0.0467,0.0185,0.0535,0.1293,0.0058
656.5,0.0978,0.0295,0.1037,0.0479,0.047,0.0312,0.0479,0.0191,0.055,0.1324,0.0058
657,0.1019,0.0303,0.1073,0.0489,0.0484,0.0321,0.0492,0.0197,0.0567,0.1359,0.0058
657.5,0.1052,0.031,0.1102,0.0498,0.0494,0.0328,0.0502,0.0202,0.058,0.1387,0.0058
658,0.1086,0.0317,0.1133,0.0508,0.0507,0.0336,0.0513,0.0206,0.0594,0.1416,0.0058
658.5,0.1128,0.0325,0.1169,0.0519,0.0521,0.0344,0.0526,0.0212,0.061,0.1449,0.0058
659,0.1161,0.0332,0.1198,0.0528,0.0532,0.0352,0.0535,0.0217,0.0624,0.1474,0.0057
659.5,0.1199,0.0339,0.123,0.0538,0.0543,0.036,0.0546,0.0222,0.0638,0.1501,0.0057
660,0.1228,0.0345,0.1255,0.0545,0.0552,0.0367,0.0555,0.0227,0.0648,0.1522,0.0058
660.5,0.1255,0.0349,0.1278,0.0552,0.056,0.0374,0.0562,0.023,0.0659,0.1539,0.0057
661,0.1287,0.0355,0.1305,0.0559,0.0569,0.0381,0.057,0.0235,0.0671,0.1559,0.0057
661.5,0.1312,0.036,0.1325,0.0564,0.0577,0.0386,0.0577,0.0238,0.068,0.1573,0.0057
662,0.1338,0.0365,0.1347,0.0569,0.0584,0.039,0.0583,0.0241,0.0689,0.1585,0.0057
662.5,0.1356,0.0368,0.136,0.057,0.0589,0.0392,0.0586,0.0243,0.0694,0.1592,0.0057
663,0.1372,0.037,0.1372,0.0571,0.0594,0.0394,0.0589,0.0245,0.0699,0.1596,0.0057
663.5,0.1386,0.0372,0.1381,0.0573,0.0598,0.0397,0.0591,0.0246,0.0704,0.1597,0.0058
664,0.1395,0.0373,0.1387,0.0573,0.06,0.0398,0.0592,0.0246,0.0705,0.1594,0.0057
664.5,0.1401,0.0374,0.1389,0.0573,0.0601,0.0399,0.0591,0.0247,0.0706,0.1587,0.0058
665,0.1402,0.0373,0.1387,0.0571,0.06,0.0399,0.0588,0.0246,0.0705,0.1576,0.0057
665.5,0.14,0.0372,0.1382,0.0571,0.0598,0.0398,0.0584,0.0245,0.0702,0.1564,0.0057
666,0.1392,0.037,0.1373,0.0569,0.0594,0.0397,0.0578,0.0243,0.0697,0.1545,0.0057
666.5,0.1383,0.0367,0.1361,0.0566,0.0589,0.0394,0.0573,0.0241,0.0691,0.1525,0.0057
667,0.1368,0.0364,0.1344,0.056,0.0582,0.0391,0.0564,0.0238,0.0683,0.1498,0.0057
667.5,0.1349,0.0359,0.1324,0.0553,0.0574,0.0386,0.0555,0.0233,0.0672,0.147,0.0057
668,0.1328,0.0354,0.1302,0.0545,0.0565,0.038,0.0545,0.0231,0.0662,0.144,0.0057
668.5,0.1301,0.0349,0.1273,0.0535,0.0554,0.0374,0.0531,0.0227,0.0647,0.1403,0.0057
669,0.1274,0.0342,0.1246,0.0526,0.0543,0.0367,0.0519,0.0223,0.0635,0.1369,0.0057
669.5,0.1239,0.0334,0.1209,0.0512,0.0529,0.0357,0.0503,0.0218,0.0617,0.1324,0.0057
670,0.1207,0.0327,0.1177,0.05,0.0517,0.0347,0.0489,0.0214,0.0601,0.1287,0.0057
670.5,0.1172,0.0319,0.1141,0.0487,0.0502,0.0337,0.0473,0.0208,0.0584,0.1245,0.0056
671,0.1128,0.0309,0.1097,0.0473,0.0484,0.0325,0.0454,0.0201,0.0562,0.1193,0.0057
671.5,0.1095,0.0301,0.1063,0.0462,0.0471,0.0315,0.0439,0.0195,0.0545,0.1154,0.0057
672,0.1053,0.0291,0.102,0.0451,0.0453,0.0304,0.0421,0.0187,0.0524,0.1105,0.0056
672.5,0.1016,0.0282,0.0982,0.0441,0.0438,0.0295,0.0406,0.018,0.0506,0.1062,0.0056
673,0.097,0.0272,0.0937,0.043,0.042,0.0286,0.0386,0.0172,0.0484,0.1012,0.0056
673.5,0.093,0.0263,0.0898,0.0419,0.0404,0.0277,0.0371,0.0165,0.0465,0.097,0.0056
674,0.089,0.0254,0.0858,0.0409,0.0388,0.0267,0.0354,0.0159,0.0446,0.0926,0.0056
674.5,0.0845,0.0244,0.0815,0.0396,0.0371,0.0256,0.0336,0.0152,0.0426,0.0879,0.0056
675,0.0808,0.0236,0.078,0.0385,0.0357,0.0247,0.0322,0.0146,0.0409,0.084,0.0056
675.5,0.0763,0.0225,0.0735,0.0371,0.0339,0.0236,0.0304,0.0139,0.0387,0.0792,0.0056
676,0.0726,0.0217,0.07,0.036,0.0325,0.0228,0.029,0.0133,0.037,0.0754,0.0057
676.5,0.0688,0.0209,0.0664,0.0348,0.031,0.0218,0.0275,0.0127,0.0353,0.0715,0.0057
677,0.0644,0.02,0.0622,0.0335,0.0293,0.0206,0.0257,0.012,0.0333,0.067,0.0056
677.5,0.0612,0.0193,0.059,0.0325,0.0281,0.0197,0.0245,0.0114,0.0317,0.0637,0.0056
678,0.0576,0.0185,0.0555,0.0316,0.0267,0.0188,0.023,0.0108,0.0301,0.0599,0.0056
678.5,0.0544,0.0178,0.0524,0.0308,0.0255,0.0179,0.0217,0.0103,0.0286,0.0567,0.0056
679,0.0507,0.017,0.0489,0.0299,0.024,0.0171,0.0202,0.0097,0.0269,0.0529,0.0055
679.5,0.0477,0.0163,0.046,0.0291,0.0229,0.0162,0.0191,0.0092,0.0256,0.0499,0.0055
680,0.0448,0.0157,0.0431,0.0283,0.0217,0.0155,0.0179,0.0087,0.0242,0.0469,0.0055
680.5,0.0416,0.015,0.0401,0.0274,0.0205,0.0146,0.0166,0.0082,0.0228,0.0438,0.0055
681,0.0392,0.0145,0.0377,0.0269,0.0195,0.014,0.0156,0.0079,0.0217,0.0414,0.0056
681.5,0.0362,0.0139,0.0348,0.0262,0.0182,0.0132,0.0144,0.0074,0.0203,0.0383,0.0056
682,0.0339,0.0134,0.0326,0.0254,0.0173,0.0126,0.0135,0.0071,0.0193,0.036,0.0055
682.5,0.0318,0.0129,0.0305,0.0246,0.0164,0.0121,0.0127,0.0068,0.0183,0.0338,0.0056
683,0.0293,0.0125,0.0281,0.0236,0.0153,0.0114,0.0117,0.0065,0.0172,0.0312,0.0055
683.5,0.0275,0.0121,0.0265,0.0229,0.0146,0.0108,0.0111,0.0063,0.0165,0.0295,0.0056
684,0.0257,0.0117,0.0247,0.0222,0.0139,0.0102,0.0104,0.006,0.0157,0.0276,0.0056
684.5,0.0241,0.0113,0.0231,0.0215,0.0132,0.0097,0.0097,0.0057,0.0149,0.0258,0.0056
685,0.0223,0.011,0.0214,0.0209,0.0125,0.0092,0.0091,0.0055,0.0142,0.024,0.0056
685.5,0.0211,0.0107,0.0202,0.0206,0.012,0.0088,0.0086,0.0053,0.0137,0.0226,0.0056
686,0.0198,0.0104,0.0189,0.0204,0.0115,0.0084,0.0081,0.005,0.0131,0.0213,0.0055
686.5,0.0186,0.0101,0.0177,0.0203,0.011,0.0081,0.0076,0.0048,0.0125,0.02,0.0056
687,0.0176,0.0099,0.0168,0.0203,0.0106,0.0077,0.0073,0.0047,0.012,0.019,0.0055
687.5,0.0164,0.0096,0.0156,0.0203,0.0101,0.0072,0.0069,0.0044,0.0115,0.0178,0.0055
688,0.0155,0.0095,0.0148,0.0203,0.0098,0.007,0.0065,0.0044,0.011,0.0168,0.0055
688.5,0.0144,0.0093,0.0138,0.0201,0.0094,0.0068,0.0061,0.0043,0.0105,0.0158,0.0055
689,0.0137,0.0091,0.0131,0.0198,0.0091,0.0066,0.0058,0.0042,0.0102,0.0151,0.0055
689.5,0.0131,0.0089,0.0125,0.0195,0.0088,0.0065,0.0055,0.0041,0.0098,0.0143,0.0055
690,0.0124,0.0087,0.0118,0.019,0.0085,0.0063,0.0052,0.004,0.0095,0.0135,0.0055
690.5,0.0119,0.0087,0.0113,0.0185,0.0083,0.0063,0.005,0.004,0.0092,0.0129,0.0055
691,0.0112,0.0085,0.0106,0.0178,0.008,0.0061,0.0048,0.004,0.0088,0.0121,0.0055
691.5,0.0108,0.0084,0.0103,0.0175,0.0079,0.0061,0.0047,0.004,0.0086,0.0117,0.0055
692,0.0103,0.0083,0.0099,0.0172,0.0076,0.0059,0.0045,0.004,0.0083,0.0111,0.0055
692.5,0.0099,0.0082,0.0096,0.0171,0.0075,0.0058,0.0043,0.004,0.0081,0.0107,0.0055
693,0.0096,0.0081,0.0093,0.0169,0.0072,0.0055,0.0041,0.0039,0.0078,0.0103,0.0054
693.5,0.0093,0.008,0.009,0.0168,0.0071,0.0055,0.004,0.004,0.0076,0.0099,0.0055
694,0.009,0.0079,0.0087,0.0167,0.0071,0.0054,0.0039,0.004,0.0075,0.0097,0.0055
694.5,0.0088,0.0078,0.0084,0.0165,0.007,0.0052,0.0037,0.0039,0.0072,0.0094,0.0054
695,0.0086,0.0078,0.0082,0.0163,0.0071,0.0052,0.0036,0.0039,0.0071,0.0091,0.0055
695.5,0.0084,0.0077,0.0079,0.0162,0.0071,0.0051,0.0035,0.0039,0.007,0.0089,0.0055
696,0.0082,0.0076,0.0076,0.0161,0.007,0.005,0.0034,0.0039,0.0069,0.0087,0.0055
696.5,0.008,0.0075,0.0074,0.0163,0.007,0.005,0.0032,0.0039,0.0067,0.0084,0.0055
697,0.0078,0.0074,0.0072,0.0163,0.007,0.0049,0.0031,0.0039,0.0067,0.0082,0.0055
697.5,0.0076,0.0073,0.007,0.0163,0.0069,0.0049,0.003,0.004,0.0066,0.008,0.0054
698,0.0074,0.0072,0.0068,0.0164,0.0069,0.0048,0.0029,0.004,0.0065,0.0078,0.0055
698.5,0.0072,0.007,0.0065,0.0162,0.0068,0.0048,0.0028,0.004,0.0065,0.0075,0.0054
699,0.007,0.007,0.0063,0.0158,0.0067,0.0048,0.0027,0.0041,0.0065,0.0073,0.0054
699.5,0.0069,0.0069,0.0061,0.0154,0.0067,0.0048,0.0027,0.0043,0.0064,0.0072,0.0054
700,0.0068,0.0069,0.0058,0.0152,0.0065,0.0048,0.0026,0.0044,0.0063,0.0069,0.0054
700.5,0.0067,0.0068,0.0057,0.0152,0.0064,0.0047,0.0025,0.0046,0.0063,0.0068,0.0054
701,0.0065,0.0067,0.0056,0.0153,0.0063,0.0047,0.0024,0.0048,0.0062,0.0066,0.0054
701.5,0.0065,0.0066,0.0055,0.0153,0.0062,0.0046,0.0022,0.0048,0.0062,0.0064,0.0054
702,0.0064,0.0066,0.0054,0.0153,0.0062,0.0046,0.0023,0.0049,0.0061,0.0063,0.0054
702.5,0.0062,0.0064,0.0053,0.0152,0.0062,0.0046,0.0022,0.005,0.0061,0.0062,0.0054
703,0.0062,0.0063,0.0051,0.015,0.0062,0.0046,0.0021,0.0049,0.0061,0.006,0.0054
703.5,0.006,0.0061,0.005,0.0148,0.0061,0.0047,0.002,0.0049,0.006,0.0058,0.0054
704,0.0059,0.006,0.0048,0.0146,0.006,0.0047,0.0019,0.0049,0.0059,0.0057,0.0054
704.5,0.006,0.0059,0.0047,0.0146,0.0059,0.0048,0.0019,0.0049,0.0058,0.0056,0.0054
705,0.006,0.0059,0.0046,0.0146,0.0058,0.0049,0.0018,0.005,0.0058,0.0055,0.0054
705.5,0.0059,0.0058,0.0044,0.0146,0.0057,0.005,0.0018,0.005,0.0057,0.0055,0.0054
706,0.0059,0.0058,0.0043,0.0148,0.0058,0.0051,0.0018,0.005,0.0056,0.0054,0.0054
706.5,0.0057,0.0058,0.0042,0.0148,0.0058,0.0051,0.0018,0.005,0.0055,0.0054,0.0054
707,0.0055,0.0057,0.004,0.0149,0.0057,0.0051,0.0017,0.0049,0.0053,0.0051,0.0053
707.5,0.0054,0.0057,0.0039,0.0148,0.0058,0.0052,0.0018,0.0049,0.0054,0.005,0.0054
708,0.0052,0.0056,0.0037,0.0145,0.0058,0.005,0.0017,0.0049,0.0051,0.0048,0.0053
708.5,0.0051,0.0057,0.0037,0.0145,0.0058,0.0051,0.0017,0.0049,0.0051,0.0047,0.0054
709,0.0049,0.0056,0.0036,0.0142,0.0058,0.005,0.0017,0.0048,0.0049,0.0045,0.0054
709.5,0.005,0.0056,0.0035,0.014,0.0058,0.0051,0.0017,0.0047,0.0049,0.0043,0.0054
710,0.0051,0.0055,0.0034,0.0138,0.0058,0.005,0.0016,0.0048,0.0048,0.0041,0.0054
710.5,0.0051,0.0055,0.0033,0.0137,0.0059,0.005,0.0016,0.0047,0.0047,0.004,0.0053
711,0.0052,0.0054,0.0033,0.0135,0.0059,0.0049,0.0016,0.0046,0.0046,0.0038,0.0053
711.5,0.0054,0.0054,0.0032,0.0136,0.006,0.0049,0.0016,0.0046,0.0046,0.0038,0.0053
712,0.0057,0.0054,0.0032,0.0137,0.0061,0.0049,0.0016,0.0046,0.0046,0.0036,0.0053
712.5,0.0058,0.0053,0.0032,0.0138,0.006,0.0048,0.0016,0.0045,0.0045,0.0035,0.0053
713,0.0059,0.0053,0.0031,0.014,0.0061,0.0048,0.0017,0.0046,0.0044,0.0035,0.0053
713.5,0.0059,0.0053,0.0031,0.0143,0.0061,0.0048,0.0018,0.0045,0.0043,0.0034,0.0053
714,0.0058,0.0053,0.003,0.0145,0.0061,0.0047,0.0018,0.0045,0.0042,0.0032,0.0053
714.5,0.0059,0.0053,0.0029,0.0148,0.0061,0.0045,0.0019,0.0044,0.0042,0.0032,0.0053
715,0.0057,0.0053,0.0028,0.0152,0.006,0.0044,0.002,0.0043,0.0042,0.0031,0.0053
715.5,0.0056,0.0053,0.0026,0.0156,0.0059,0.0042,0.0019,0.0043,0.0041,0.003,0.0052
716,0.0057,0.0053,0.0026,0.0159,0.0059,0.0041,0.002,0.0042,0.0041,0.003,0.0053
716.5,0.0057,0.0053,0.0026,0.016,0.0057,0.0041,0.0021,0.0042,0.0042,0.0029,0.0053
717,0.0058,0.0053,0.0025,0.0159,0.0056,0.0041,0.0021,0.0043,0.0042,0.0029,0.0053
717.5,0.0058,0.0053,0.0025,0.0158,0.0055,0.0041,0.002,0.0042,0.0044,0.0029,0.0053
718,0.0057,0.0053,0.0024,0.0156,0.0054,0.004,0.0019,0.0041,0.0044,0.0028,0.0052
718.5,0.0055,0.0053,0.0024,0.0154,0.0053,0.004,0.002,0.0041,0.0046,0.0028,0.0053
719,0.0053,0.0053,0.0023,0.0153,0.0052,0.004,0.002,0.0039,0.0047,0.0027,0.0052
719.5,0.0052,0.0053,0.0024,0.0152,0.0052,0.0041,0.002,0.0039,0.0049,0.0027,0.0053
720,0.0049,0.0053,0.0024,0.0151,0.005,0.0041,0.002,0.0039,0.0051,0.0027,0.0052
720.5,0.0049,0.0053,0.0024,0.0152,0.005,0.0041,0.0021,0.0038,0.0053,0.0027,0.0053
721,0.0047,0.0053,0.0024,0.0155,0.0049,0.0041,0.002,0.0038,0.0055,0.0025,0.0052
721.5,0.0045,0.0053,0.0024,0.0156,0.0048,0.0042,0.002,0.0039,0.0055,0.0024,0.0053
722,0.0045,0.0053,0.0024,0.0154,0.0047,0.0043,0.0019,0.0039,0.0056,0.0025,0.0053
722.5,0.0043,0.0053,0.0024,0.0152,0.0045,0.0043,0.0019,0.0039,0.0057,0.0024,0.0053
723,0.0041,0.0052,0.0024,0.0147,0.0045,0.0043,0.0017,0.004,0.0057,0.0022,0.0052
723.5,0.0041,0.0053,0.0023,0.0145,0.0045,0.0043,0.0018,0.004,0.0057,0.0022,0.0053
724,0.004,0.0053,0.0023,0.0146,0.0045,0.0042,0.0018,0.0039,0.0058,0.0021,0.0053
724.5,0.0041,0.0053,0.0023,0.0147,0.0044,0.0041,0.0017,0.004,0.0057,0.002,0.0052
725,0.0042,0.0054,0.0022,0.0149,0.0045,0.004,0.0017,0.004,0.0056,0.0019,0.0053
725.5,0.0042,0.0053,0.0022,0.015,0.0043,0.004,0.0016,0.0039,0.0056,0.0019,0.0052
726,0.0044,0.0054,0.0021,0.0152,0.0043,0.004,0.0015,0.004,0.0056,0.0019,0.0052
726.5,0.0045,0.0054,0.0021,0.0152,0.0043,0.004,0.0015,0.004,0.0056,0.0018,0.0052
727,0.0044,0.0054,0.002,0.015,0.0044,0.0039,0.0014,0.0041,0.0056,0.0017,0.0052
727.5,0.0046,0.0054,0.0019,0.0146,0.0043,0.0039,0.0013,0.0041,0.0056,0.0017,0.0052
728,0.0047,0.0055,0.0019,0.0141,0.0043,0.0038,0.0012,0.0042,0.0058,0.0017,0.0052
728.5,0.0047,0.0055,0.0018,0.0138,0.0044,0.0038,0.0011,0.0042,0.0058,0.0016,0.0051
729,0.0046,0.0054,0.0018,0.0136,0.0044,0.0038,0.0011,0.0043,0.0058,0.0016,0.0052
729.5,0.0045,0.0055,0.0018,0.0134,0.0044,0.0037,0.001,0.0042,0.0058,0.0016,0.0052
730,0.0044,0.0054,0.0018,0.0133,0.0045,0.0037,0.001,0.0042,0.0058,0.0015,0.0052
730.5,0.0045,0.0054,0.0019,0.0132,0.0045,0.0036,0.0011,0.0041,0.0057,0.0014,0.0052
731,0.0044,0.0054,0.0019,0.013,0.0045,0.0035,0.001,0.004,0.0056,0.0014,0.0052
731.5,0.0044,0.0054,0.002,0.0131,0.0045,0.0035,0.001,0.0039,0.0054,0.0014,0.0052
732,0.0045,0.0054,0.0021,0.0133,0.0045,0.0035,0.001,0.0039,0.0053,0.0013,0.0052
732.5,0.0044,0.0053,0.0023,0.0132,0.0045,0.0036,0.001,0.0038,0.0051,0.0012,0.0052
733,0.0043,0.0053,0.0024,0.0132,0.0044,0.0036,0.0009,0.0038,0.005,0.0011,0.0051
733.5,0.0043,0.0053,0.0025,0.0131,0.0044,0.0036,0.0009,0.0037,0.0048,0.0011,0.0052
734,0.0042,0.0052,0.0025,0.013,0.0044,0.0036,0.001,0.0036,0.0046,0.001,0.0051
734.5,0.0042,0.0053,0.0027,0.0129,0.0043,0.0036,0.0009,0.0036,0.0045,0.001,0.0051
735,0.0035,0.0057,0.0024,0.0131,0.0054,0.0051,0.0019,0.004,0.0047,0.0019,0.0055
735.5,0.0034,0.0056,0.0024,0.013,0.0054,0.0049,0.0019,0.004,0.0048,0.0019,0.0055
736,0.0033,0.0056,0.0024,0.0131,0.0053,0.0049,0.0019,0.004,0.0048,0.0019,0.0055
736.5,0.0032,0.0056,0.0024,0.0131,0.0053,0.0046,0.0018,0.004,0.0048,0.0019,0.0054
737,0.0032,0.0056,0.0024,0.0132,0.0053,0.0046,0.0018,0.004,0.0048,0.0019,0.0054
737.5,0.0033,0.0056,0.0023,0.0134,0.0052,0.0045,0.0018,0.004,0.0049,0.002,0.0054
738,0.0032,0.0056,0.0022,0.0134,0.0051,0.0044,0.0019,0.004,0.0049,0.002,0.0053
738.5,0.0032,0.0055,0.0022,0.0137,0.0051,0.0043,0.0019,0.004,0.005,0.002,0.0054
739,0.0032,0.0055,0.0021,0.0137,0.0051,0.0041,0.0018,0.0039,0.005,0.002,0.0053
739.5,0.0032,0.0055,0.002,0.0139,0.0051,0.0041,0.0018,0.0039,0.005,0.0021,0.0054
740,0.0032,0.0055,0.002,0.0139,0.005,0.004,0.0018,0.0039,0.0049,0.0021,0.0054
740.5,0.0032,0.0054,0.0018,0.0138,0.0049,0.0039,0.0017,0.0038,0.0048,0.0021,0.0053
741,0.0032,0.0054,0.0017,0.0138,0.0048,0.0039,0.0016,0.0037,0.0048,0.0022,0.0053
741.5,0.0031,0.0053,0.0016,0.0137,0.0048,0.0038,0.0016,0.0036,0.0048,0.0022,0.0053
742,0.0031,0.0053,0.0015,0.0135,0.0047,0.0037,0.0015,0.0036,0.0047,0.0023,0.0053
742.5,0.0031,0.0052,0.0014,0.0135,0.0046,0.0036,0.0015,0.0035,0.0047,0.0023,0.0053
743,0.0031,0.0052,0.0014,0.0135,0.0045,0.0036,0.0015,0.0036,0.0046,0.0024,0.0053
743.5,0.0032,0.0052,0.0014,0.0136,0.0044,0.0036,0.0014,0.0036,0.0046,0.0025,0.0053
744,0.0032,0.0052,0.0013,0.0137,0.0044,0.0035,0.0014,0.0036,0.0046,0.0026,0.0053
744.5,0.0032,0.0052,0.0013,0.0136,0.0045,0.0036,0.0014,0.0036,0.0046,0.0027,0.0053
745,0.0031,0.0052,0.0013,0.0136,0.0045,0.0035,0.0013,0.0036,0.0045,0.0029,0.0053
745.5,0.003,0.0051,0.0014,0.0135,0.0045,0.0035,0.0013,0.0036,0.0045,0.0031,0.0053
746,0.003,0.0051,0.0014,0.0134,0.0045,0.0035,0.0013,0.0036,0.0044,0.0032,0.0053
746.5,0.003,0.0051,0.0014,0.0132,0.0045,0.0035,0.0012,0.0036,0.0044,0.0034,0.0053
747,0.003,0.0051,0.0015,0.0131,0.0046,0.0035,0.0012,0.0036,0.0045,0.0036,0.0053
747.5,0.0029,0.005,0.0015,0.013,0.0046,0.0035,0.0013,0.0036,0.0044,0.0038,0.0052
748,0.003,0.0051,0.0017,0.0128,0.0046,0.0035,0.0012,0.0036,0.0044,0.0039,0.0052
748.5,0.0029,0.005,0.0017,0.0128,0.0046,0.0034,0.0012,0.0036,0.0044,0.0041,0.0052
749,0.003,0.005,0.0018,0.0127,0.0046,0.0035,0.0013,0.0036,0.0045,0.0042,0.0052
749.5,0.003,0.005,0.0019,0.0126,0.0046,0.0035,0.0013,0.0036,0.0045,0.0043,0.0052
750,0.0029,0.005,0.0019,0.0125,0.0045,0.0035,0.0014,0.0035,0.0045,0.0044,0.0052
750.5,0.003,0.005,0.0018,0.0124,0.0046,0.0036,0.0015,0.0035,0.0046,0.0045,0.0052
751,0.0029,0.005,0.0018,0.0124,0.0046,0.0036,0.0016,0.0035,0.0046,0.0045,0.0052
751.5,0.0029,0.005,0.0018,0.0122,0.0046,0.0037,0.0017,0.0037,0.0048,0.0045,0.0052
752,0.0029,0.005,0.0018,0.0122,0.0046,0.0037,0.0019,0.0038,0.0048,0.0046,0.0052
752.5,0.0029,0.0049,0.0017,0.0122,0.0046,0.0037,0.002,0.0039,0.0048,0.0046,0.0051
753,0.0029,0.005,0.0017,0.0122,0.0047,0.0038,0.0021,0.004,0.0049,0.0045,0.0052
753.5,0.0029,0.0049,0.0017,0.0122,0.0047,0.0038,0.0022,0.0041,0.0049,0.0045,0.0052
754,0.0029,0.0049,0.0017,0.0121,0.0047,0.0038,0.0022,0.0041,0.0049,0.0044,0.0051
754.5,0.0029,0.0049,0.0017,0.0122,0.0047,0.0039,0.0023,0.0042,0.0049,0.0043,0.0052
755,0.0029,0.0048,0.0017,0.0122,0.0047,0.004,0.0023,0.0042,0.005,0.0042,0.0051
755.5,0.0029,0.0048,0.0016,0.0122,0.0047,0.004,0.0023,0.0043,0.0051,0.0042,0.0052
756,0.0028,0.0048,0.0016,0.0122,0.0047,0.0041,0.0024,0.0043,0.0052,0.0041,0.0051
756.5,0.0028,0.0048,0.0016,0.0123,0.0047,0.004,0.0024,0.0043,0.0052,0.004,0.0051
757,0.0028,0.0048,0.0016,0.0124,0.0047,0.0041,0.0024,0.0043,0.0053,0.0039,0.0051
757.5,0.0028,0.0048,0.0016,0.0126,0.0048,0.0041,0.0024,0.0044,0.0054,0.0038,0.0052
758,0.0028,0.0047,0.0015,0.0126,0.0047,0.0041,0.0024,0.0043,0.0054,0.0037,0.0051
758.5,0.0027,0.0047,0.0015,0.0128,0.0047,0.0041,0.0024,0.0043,0.0054,0.0035,0.0051
759,0.0027,0.0047,0.0015,0.0131,0.0048,0.0041,0.0024,0.0044,0.0053,0.0034,0.0051
759.5,0.0027,0.0047,0.0015,0.0134,0.0048,0.0041,0.0024,0.0045,0.0054,0.0033,0.0051
760,0.0027,0.0047,0.0015,0.0135,0.0048,0.004,0.0024,0.0045,0.0053,0.0031,0.0051
760.5,0.0027,0.0047,0.0015,0.0137,0.0049,0.004,0.0024,0.0046,0.0053,0.003,0.0051
761,0.0027,0.0047,0.0015,0.0139,0.0049,0.0039,0.0024,0.0047,0.0053,0.0029,0.0051
761.5,0.0027,0.0047,0.0015,0.0142,0.0049,0.0038,0.0023,0.0049,0.0052,0.0028,0.0051
762,0.0027,0.0047,0.0016,0.0144,0.0051,0.0039,0.0023,0.0049,0.0052,0.0027,0.0051
762.5,0.0027,0.0047,0.0015,0.0145,0.0051,0.0039,0.0022,0.005,0.0053,0.0025,0.0051
763,0.0026,0.0047,0.0015,0.0147,0.005,0.0038,0.0022,0.0051,0.0053,0.0025,0.0051
763.5,0.0026,0.0047,0.0014,0.0148,0.005,0.0038,0.0021,0.0051,0.0052,0.0024,0.0051
764,0.0026,0.0048,0.0015,0.0148,0.0051,0.0039,0.002,0.0052,0.0052,0.0024,0.0051
764.5,0.0026,0.0048,0.0015,0.0148,0.005,0.0038,0.0019,0.0052,0.0052,0.0023,0.0051
765,0.0026,0.0048,0.0015,0.0147,0.005,0.0038,0.0018,0.0053,0.0052,0.0023,0.005
765.5,0.0026,0.0049,0.0016,0.0147,0.005,0.0038,0.0018,0.0053,0.0052,0.0023,0.005
766,0.0026,0.0049,0.0015,0.0148,0.005,0.0038,0.0017,0.0053,0.0051,0.0022,0.005
766.5,0.0026,0.0049,0.0015,0.0147,0.0049,0.0037,0.0016,0.0054,0.0051,0.0022,0.005
767,0.0027,0.0049,0.0016,0.0145,0.0049,0.0037,0.0015,0.0054,0.0049,0.0022,0.005
767.5,0.0027,0.0051,0.0016,0.0145,0.005,0.0037,0.0016,0.0054,0.0049,0.0023,0.0051
768,0.0027,0.0051,0.0015,0.0143,0.0049,0.0037,0.0015,0.0054,0.0048,0.0023,0.005
768.5,0.0027,0.005,0.0014,0.0142,0.005,0.0037,0.0014,0.0053,0.0047,0.0023,0.005
769,0.0027,0.005,0.0014,0.0141,0.005,0.0036,0.0014,0.0052,0.0046,0.0022,0.005
769.5,0.0027,0.0051,0.0014,0.014,0.005,0.0036,0.0013,0.0052,0.0047,0.0023,0.005
770,0.0028,0.0052,0.0015,0.0141,0.0051,0.0037,0.0014,0.0052,0.0047,0.0024,0.0051
770.5,0.0028,0.0051,0.0014,0.0139,0.005,0.0036,0.0012,0.0051,0.0046,0.0023,0.005
771,0.0028,0.0052,0.0015,0.014,0.0051,0.0036,0.0013,0.0051,0.0047,0.0025,0.0051
771.5,0.0028,0.0052,0.0015,0.014,0.005,0.0037,0.0012,0.005,0.0046,0.0025,0.005
772,0.0029,0.0052,0.0015,0.0141,0.0051,0.0036,0.0012,0.0049,0.0047,0.0025,0.005
772.5,0.0029,0.0051,0.0015,0.014,0.0051,0.0036,0.0013,0.0048,0.0046,0.0026,0.005
773,0.0029,0.0051,0.0015,0.014,0.0051,0.0035,0.0013,0.0048,0.0047,0.0027,0.005
773.5,0.0029,0.0052,0.0015,0.0139,0.0051,0.0035,0.0013,0.0047,0.0048,0.0027,0.005
774,0.0029,0.0052,0.0014,0.0138,0.0051,0.0035,0.0013,0.0046,0.0047,0.0028,0.005
774.5,0.0029,0.0051,0.0013,0.0139,0.0051,0.0034,0.0013,0.0045,0.0047,0.0028,0.0049
775,0.0029,0.0051,0.0013,0.0139,0.0051,0.0034,0.0013,0.0045,0.0047,0.0028,0.0049