Wavelength Scan - Scanning

Instrument Name:,,,DU 800 Spectrophotometer
Serial Number:,,,8002850
Software Version:,,,"2.1,  Build 5"
Firmware Version:,,,2.0.102
Method Name:,,,LTER Chl
Organization:,,,
Department:,,,
Operator:,,,
Product Name:,,,
Component Name:,,,
Lot Number:,,,
Comment:,,,
Signature 1:,,,
Signature 2:,,,
Signature 3:,,,
Signature 4:,,,
Signature 5:,,,

#,Filename,Acquired
1,,"March 01, 2022 12:52 PM"

Scan Mode:,,,Abs
Start Wavelength:,,,600.0 nm
End Wavelength:,,,775.0 nm
Wavelength Interval:,,,0.5 nm
Scan Speed:,,,600 nm/min

,Sample Name,,Description
1,ALC_210721,,100
2,HP_210721,,300
3,L60_210726,,100
4,HP_210726,,200
5,ELV_210726,,200
6,DOBA8_210726,,100
7,MDT_210726,,100
8,KP_210727,,100
9,DOBA7_210727,,100
10,BLA,,3000

nm,Abs 1,Abs 2,Abs 3,Abs 4,Abs 5,Abs 6,Abs 7,Abs 8,Abs 9,Abs 10
600.0,0.0118,0.0071,0.0168,0.0099,0.0267,0.0109,0.0174,0.0218,0.0197,0.0009
600.5,0.0119,0.0072,0.0169,0.0100,0.0268,0.0109,0.0175,0.0220,0.0200,0.0009
601.0,0.0120,0.0072,0.0170,0.0100,0.0269,0.0110,0.0176,0.0220,0.0202,0.0009
601.5,0.0121,0.0073,0.0170,0.0102,0.0270,0.0111,0.0176,0.0222,0.0205,0.0009
602.0,0.0122,0.0074,0.0171,0.0102,0.0271,0.0112,0.0176,0.0222,0.0207,0.0009
602.5,0.0123,0.0075,0.0172,0.0103,0.0271,0.0112,0.0177,0.0223,0.0209,0.0009
603.0,0.0124,0.0075,0.0173,0.0104,0.0272,0.0113,0.0177,0.0224,0.0211,0.0009
603.5,0.0125,0.0076,0.0173,0.0105,0.0273,0.0113,0.0178,0.0224,0.0213,0.0009
604.0,0.0126,0.0076,0.0174,0.0106,0.0273,0.0113,0.0178,0.0225,0.0214,0.0009
604.5,0.0126,0.0077,0.0174,0.0106,0.0273,0.0114,0.0178,0.0225,0.0215,0.0009
605.0,0.0127,0.0077,0.0175,0.0107,0.0273,0.0114,0.0178,0.0225,0.0216,0.0010
605.5,0.0128,0.0077,0.0174,0.0107,0.0273,0.0114,0.0178,0.0224,0.0217,0.0009
606.0,0.0128,0.0077,0.0175,0.0108,0.0273,0.0114,0.0178,0.0224,0.0217,0.0009
606.5,0.0128,0.0077,0.0175,0.0109,0.0273,0.0113,0.0178,0.0224,0.0218,0.0009
607.0,0.0129,0.0077,0.0175,0.0109,0.0272,0.0113,0.0178,0.0223,0.0217,0.0009
607.5,0.0129,0.0077,0.0175,0.0110,0.0272,0.0112,0.0178,0.0223,0.0217,0.0009
608.0,0.0129,0.0077,0.0175,0.0110,0.0271,0.0112,0.0178,0.0222,0.0217,0.0009
608.5,0.0129,0.0076,0.0175,0.0110,0.0271,0.0111,0.0177,0.0221,0.0216,0.0009
609.0,0.0128,0.0076,0.0174,0.0111,0.0271,0.0111,0.0177,0.0220,0.0216,0.0009
609.5,0.0128,0.0076,0.0174,0.0112,0.0270,0.0110,0.0177,0.0218,0.0215,0.0009
610.0,0.0128,0.0076,0.0174,0.0112,0.0269,0.0110,0.0177,0.0217,0.0213,0.0009
610.5,0.0127,0.0075,0.0174,0.0113,0.0268,0.0109,0.0177,0.0216,0.0212,0.0009
611.0,0.0127,0.0075,0.0173,0.0114,0.0267,0.0108,0.0176,0.0214,0.0211,0.0010
611.5,0.0126,0.0074,0.0172,0.0114,0.0265,0.0107,0.0176,0.0212,0.0209,0.0009
612.0,0.0126,0.0074,0.0172,0.0115,0.0265,0.0106,0.0175,0.0211,0.0207,0.0010
612.5,0.0125,0.0073,0.0171,0.0116,0.0264,0.0106,0.0174,0.0209,0.0205,0.0009
613.0,0.0124,0.0072,0.0171,0.0116,0.0263,0.0105,0.0174,0.0207,0.0204,0.0010
613.5,0.0124,0.0072,0.0170,0.0117,0.0262,0.0104,0.0174,0.0206,0.0202,0.0010
614.0,0.0123,0.0071,0.0169,0.0117,0.0260,0.0103,0.0173,0.0204,0.0200,0.0010
614.5,0.0122,0.0070,0.0168,0.0118,0.0258,0.0102,0.0172,0.0202,0.0198,0.0010
615.0,0.0121,0.0069,0.0168,0.0118,0.0257,0.0101,0.0172,0.0200,0.0195,0.0010
615.5,0.0121,0.0068,0.0167,0.0119,0.0255,0.0100,0.0171,0.0199,0.0193,0.0010
616.0,0.0120,0.0068,0.0166,0.0119,0.0254,0.0099,0.0171,0.0197,0.0190,0.0010
616.5,0.0119,0.0067,0.0165,0.0120,0.0253,0.0098,0.0170,0.0196,0.0188,0.0010
617.0,0.0118,0.0067,0.0164,0.0120,0.0251,0.0097,0.0169,0.0194,0.0186,0.0010
617.5,0.0117,0.0066,0.0163,0.0120,0.0250,0.0096,0.0169,0.0192,0.0183,0.0010
618.0,0.0116,0.0065,0.0162,0.0120,0.0249,0.0095,0.0169,0.0191,0.0181,0.0010
618.5,0.0115,0.0065,0.0161,0.0120,0.0248,0.0095,0.0168,0.0189,0.0179,0.0010
619.0,0.0114,0.0064,0.0160,0.0120,0.0247,0.0094,0.0167,0.0188,0.0177,0.0010
619.5,0.0113,0.0064,0.0160,0.0120,0.0246,0.0093,0.0167,0.0187,0.0176,0.0010
620.0,0.0112,0.0063,0.0158,0.0120,0.0244,0.0092,0.0166,0.0184,0.0173,0.0010
620.5,0.0111,0.0063,0.0158,0.0120,0.0243,0.0091,0.0166,0.0183,0.0171,0.0010
621.0,0.0110,0.0062,0.0157,0.0120,0.0243,0.0090,0.0165,0.0181,0.0169,0.0010
621.5,0.0110,0.0062,0.0156,0.0120,0.0242,0.0090,0.0165,0.0180,0.0168,0.0010
622.0,0.0108,0.0061,0.0155,0.0120,0.0241,0.0089,0.0165,0.0179,0.0166,0.0010
622.5,0.0108,0.0061,0.0154,0.0120,0.0241,0.0089,0.0164,0.0178,0.0164,0.0011
623.0,0.0107,0.0060,0.0153,0.0120,0.0239,0.0088,0.0164,0.0176,0.0163,0.0010
623.5,0.0107,0.0060,0.0152,0.0120,0.0238,0.0087,0.0164,0.0176,0.0162,0.0010
624.0,0.0106,0.0060,0.0152,0.0120,0.0238,0.0087,0.0163,0.0175,0.0161,0.0010
624.5,0.0105,0.0060,0.0152,0.0120,0.0238,0.0086,0.0163,0.0174,0.0160,0.0010
625.0,0.0105,0.0060,0.0151,0.0120,0.0237,0.0086,0.0163,0.0174,0.0160,0.0010
625.5,0.0104,0.0060,0.0151,0.0120,0.0237,0.0086,0.0163,0.0173,0.0159,0.0010
626.0,0.0103,0.0060,0.0150,0.0120,0.0236,0.0085,0.0162,0.0172,0.0159,0.0010
626.5,0.0103,0.0061,0.0150,0.0120,0.0236,0.0085,0.0162,0.0172,0.0159,0.0010
627.0,0.0102,0.0061,0.0150,0.0121,0.0236,0.0085,0.0162,0.0171,0.0159,0.0010
627.5,0.0102,0.0061,0.0149,0.0121,0.0236,0.0085,0.0162,0.0171,0.0158,0.0010
628.0,0.0101,0.0062,0.0149,0.0121,0.0236,0.0085,0.0162,0.0171,0.0159,0.0010
628.5,0.0102,0.0062,0.0149,0.0122,0.0236,0.0085,0.0162,0.0170,0.0159,0.0010
629.0,0.0101,0.0063,0.0149,0.0122,0.0236,0.0085,0.0162,0.0169,0.0159,0.0010
629.5,0.0102,0.0063,0.0149,0.0123,0.0237,0.0085,0.0163,0.0169,0.0159,0.0010
630.0,0.0101,0.0064,0.0149,0.0123,0.0237,0.0084,0.0162,0.0168,0.0160,0.0010
630.5,0.0101,0.0064,0.0150,0.0124,0.0236,0.0085,0.0162,0.0168,0.0160,0.0010
631.0,0.0102,0.0065,0.0150,0.0124,0.0237,0.0085,0.0162,0.0168,0.0161,0.0010
631.5,0.0102,0.0066,0.0150,0.0125,0.0237,0.0085,0.0162,0.0167,0.0162,0.0011
632.0,0.0103,0.0067,0.0151,0.0127,0.0238,0.0086,0.0163,0.0167,0.0163,0.0011
632.5,0.0103,0.0067,0.0151,0.0127,0.0239,0.0086,0.0163,0.0167,0.0164,0.0011
633.0,0.0104,0.0069,0.0152,0.0128,0.0239,0.0086,0.0163,0.0167,0.0165,0.0011
633.5,0.0104,0.0069,0.0152,0.0128,0.0240,0.0087,0.0163,0.0167,0.0166,0.0010
634.0,0.0105,0.0070,0.0153,0.0129,0.0240,0.0087,0.0164,0.0167,0.0168,0.0011
634.5,0.0106,0.0072,0.0153,0.0130,0.0241,0.0088,0.0164,0.0167,0.0170,0.0011
635.0,0.0107,0.0073,0.0154,0.0131,0.0242,0.0089,0.0165,0.0168,0.0171,0.0011
635.5,0.0107,0.0074,0.0155,0.0133,0.0243,0.0089,0.0165,0.0168,0.0173,0.0011
636.0,0.0108,0.0075,0.0155,0.0134,0.0244,0.0089,0.0165,0.0168,0.0174,0.0011
636.5,0.0109,0.0077,0.0156,0.0135,0.0245,0.0090,0.0166,0.0169,0.0177,0.0011
637.0,0.0110,0.0079,0.0157,0.0137,0.0246,0.0092,0.0166,0.0169,0.0178,0.0011
637.5,0.0111,0.0081,0.0159,0.0139,0.0248,0.0092,0.0167,0.0171,0.0181,0.0011
638.0,0.0112,0.0082,0.0159,0.0140,0.0249,0.0093,0.0167,0.0172,0.0183,0.0011
638.5,0.0113,0.0084,0.0161,0.0141,0.0250,0.0094,0.0168,0.0173,0.0186,0.0011
639.0,0.0115,0.0086,0.0162,0.0142,0.0251,0.0095,0.0169,0.0174,0.0189,0.0011
639.5,0.0116,0.0088,0.0164,0.0144,0.0253,0.0097,0.0170,0.0176,0.0192,0.0011
640.0,0.0117,0.0090,0.0165,0.0144,0.0254,0.0097,0.0171,0.0177,0.0195,0.0011
640.5,0.0119,0.0093,0.0167,0.0146,0.0256,0.0100,0.0172,0.0179,0.0199,0.0011
641.0,0.0120,0.0095,0.0169,0.0147,0.0257,0.0100,0.0172,0.0181,0.0201,0.0011
641.5,0.0123,0.0099,0.0172,0.0149,0.0259,0.0102,0.0174,0.0183,0.0207,0.0011
642.0,0.0123,0.0101,0.0173,0.0151,0.0262,0.0104,0.0175,0.0186,0.0211,0.0011
642.5,0.0125,0.0104,0.0175,0.0152,0.0264,0.0106,0.0177,0.0189,0.0215,0.0011
643.0,0.0128,0.0108,0.0179,0.0154,0.0267,0.0108,0.0178,0.0192,0.0220,0.0011
643.5,0.0129,0.0111,0.0181,0.0155,0.0269,0.0109,0.0179,0.0195,0.0225,0.0011
644.0,0.0133,0.0115,0.0184,0.0157,0.0273,0.0112,0.0181,0.0199,0.0232,0.0011
644.5,0.0135,0.0120,0.0187,0.0158,0.0276,0.0114,0.0183,0.0204,0.0238,0.0011
645.0,0.0138,0.0123,0.0189,0.0160,0.0279,0.0116,0.0184,0.0207,0.0243,0.0011
645.5,0.0141,0.0127,0.0192,0.0162,0.0283,0.0120,0.0187,0.0212,0.0251,0.0012
646.0,0.0144,0.0131,0.0196,0.0164,0.0287,0.0122,0.0188,0.0216,0.0258,0.0011
646.5,0.0147,0.0135,0.0199,0.0166,0.0291,0.0125,0.0190,0.0221,0.0265,0.0011
647.0,0.0152,0.0141,0.0203,0.0168,0.0296,0.0129,0.0193,0.0226,0.0274,0.0011
647.5,0.0156,0.0146,0.0207,0.0171,0.0301,0.0132,0.0196,0.0232,0.0283,0.0012
648.0,0.0160,0.0151,0.0211,0.0173,0.0306,0.0136,0.0198,0.0239,0.0293,0.0011
648.5,0.0163,0.0155,0.0215,0.0175,0.0310,0.0139,0.0201,0.0245,0.0302,0.0011
649.0,0.0168,0.0160,0.0219,0.0178,0.0316,0.0144,0.0204,0.0252,0.0313,0.0012
649.5,0.0172,0.0165,0.0224,0.0181,0.0323,0.0148,0.0207,0.0260,0.0325,0.0011
650.0,0.0177,0.0170,0.0228,0.0183,0.0328,0.0152,0.0210,0.0268,0.0336,0.0011
650.5,0.0182,0.0176,0.0234,0.0187,0.0335,0.0158,0.0213,0.0279,0.0350,0.0011
651.0,0.0187,0.0181,0.0239,0.0190,0.0341,0.0162,0.0216,0.0287,0.0362,0.0011
651.5,0.0192,0.0185,0.0243,0.0193,0.0347,0.0166,0.0219,0.0296,0.0373,0.0011
652.0,0.0198,0.0191,0.0249,0.0196,0.0355,0.0172,0.0223,0.0308,0.0389,0.0011
652.5,0.0204,0.0196,0.0254,0.0200,0.0362,0.0178,0.0227,0.0318,0.0404,0.0012
653.0,0.0210,0.0201,0.0260,0.0204,0.0369,0.0183,0.0231,0.0329,0.0419,0.0012
653.5,0.0217,0.0207,0.0267,0.0207,0.0378,0.0190,0.0235,0.0341,0.0436,0.0011
654.0,0.0223,0.0212,0.0272,0.0211,0.0385,0.0195,0.0238,0.0352,0.0451,0.0012
654.5,0.0230,0.0217,0.0279,0.0215,0.0394,0.0203,0.0242,0.0364,0.0469,0.0012
655.0,0.0235,0.0221,0.0284,0.0219,0.0401,0.0208,0.0246,0.0374,0.0485,0.0011
655.5,0.0242,0.0227,0.0290,0.0223,0.0409,0.0215,0.0250,0.0385,0.0502,0.0012
656.0,0.0249,0.0232,0.0297,0.0228,0.0420,0.0223,0.0255,0.0399,0.0523,0.0012
656.5,0.0255,0.0236,0.0302,0.0232,0.0427,0.0229,0.0259,0.0410,0.0539,0.0011
657.0,0.0262,0.0242,0.0309,0.0237,0.0437,0.0236,0.0263,0.0422,0.0558,0.0012
657.5,0.0268,0.0245,0.0314,0.0240,0.0445,0.0242,0.0267,0.0432,0.0574,0.0012
658.0,0.0273,0.0249,0.0319,0.0244,0.0452,0.0248,0.0270,0.0443,0.0591,0.0011
658.5,0.0281,0.0254,0.0326,0.0249,0.0462,0.0256,0.0275,0.0456,0.0611,0.0012
659.0,0.0287,0.0257,0.0331,0.0253,0.0470,0.0262,0.0279,0.0467,0.0627,0.0012
659.5,0.0293,0.0260,0.0336,0.0258,0.0479,0.0269,0.0282,0.0479,0.0644,0.0012
660.0,0.0298,0.0264,0.0340,0.0262,0.0486,0.0274,0.0285,0.0488,0.0659,0.0012
660.5,0.0302,0.0266,0.0344,0.0264,0.0492,0.0279,0.0288,0.0496,0.0671,0.0012
661.0,0.0308,0.0268,0.0348,0.0268,0.0499,0.0284,0.0291,0.0506,0.0686,0.0012
661.5,0.0311,0.0270,0.0351,0.0270,0.0505,0.0289,0.0293,0.0513,0.0697,0.0012
662.0,0.0315,0.0271,0.0355,0.0273,0.0510,0.0293,0.0295,0.0520,0.0708,0.0012
662.5,0.0317,0.0272,0.0357,0.0274,0.0513,0.0296,0.0297,0.0524,0.0715,0.0012
663.0,0.0319,0.0273,0.0359,0.0275,0.0516,0.0298,0.0298,0.0528,0.0721,0.0012
663.5,0.0321,0.0272,0.0360,0.0276,0.0518,0.0300,0.0299,0.0532,0.0725,0.0012
664.0,0.0321,0.0272,0.0360,0.0277,0.0519,0.0302,0.0299,0.0533,0.0728,0.0012
664.5,0.0321,0.0270,0.0360,0.0277,0.0518,0.0302,0.0299,0.0534,0.0728,0.0012
665.0,0.0320,0.0268,0.0360,0.0277,0.0518,0.0302,0.0298,0.0533,0.0726,0.0012
665.5,0.0319,0.0266,0.0358,0.0276,0.0515,0.0300,0.0296,0.0530,0.0722,0.0012
666.0,0.0316,0.0263,0.0356,0.0274,0.0512,0.0298,0.0294,0.0527,0.0716,0.0012
666.5,0.0313,0.0259,0.0354,0.0273,0.0509,0.0295,0.0292,0.0522,0.0708,0.0012
667.0,0.0308,0.0254,0.0350,0.0270,0.0503,0.0292,0.0289,0.0515,0.0697,0.0012
667.5,0.0303,0.0250,0.0346,0.0268,0.0498,0.0288,0.0286,0.0508,0.0685,0.0012
668.0,0.0296,0.0244,0.0341,0.0265,0.0491,0.0282,0.0282,0.0499,0.0671,0.0012
668.5,0.0290,0.0238,0.0335,0.0262,0.0484,0.0276,0.0278,0.0489,0.0653,0.0012
669.0,0.0283,0.0232,0.0329,0.0259,0.0476,0.0271,0.0274,0.0479,0.0638,0.0012
669.5,0.0274,0.0225,0.0322,0.0254,0.0467,0.0263,0.0268,0.0467,0.0617,0.0012
670.0,0.0267,0.0219,0.0315,0.0250,0.0458,0.0256,0.0264,0.0456,0.0599,0.0013
670.5,0.0259,0.0213,0.0308,0.0246,0.0450,0.0249,0.0259,0.0444,0.0579,0.0013
671.0,0.0250,0.0204,0.0299,0.0240,0.0438,0.0240,0.0252,0.0429,0.0554,0.0013
671.5,0.0242,0.0198,0.0293,0.0235,0.0430,0.0233,0.0248,0.0417,0.0535,0.0013
672.0,0.0233,0.0190,0.0284,0.0229,0.0419,0.0224,0.0242,0.0403,0.0512,0.0013
672.5,0.0226,0.0184,0.0277,0.0225,0.0410,0.0218,0.0237,0.0391,0.0492,0.0013
673.0,0.0217,0.0175,0.0268,0.0219,0.0400,0.0209,0.0231,0.0375,0.0468,0.0013
673.5,0.0209,0.0169,0.0261,0.0214,0.0391,0.0201,0.0227,0.0363,0.0448,0.0014
674.0,0.0200,0.0161,0.0253,0.0209,0.0382,0.0194,0.0221,0.0349,0.0427,0.0013
674.5,0.0192,0.0153,0.0245,0.0204,0.0372,0.0185,0.0216,0.0334,0.0406,0.0013
675.0,0.0184,0.0147,0.0238,0.0199,0.0364,0.0178,0.0211,0.0322,0.0388,0.0012
675.5,0.0175,0.0139,0.0229,0.0193,0.0354,0.0169,0.0206,0.0307,0.0366,0.0013
676.0,0.0169,0.0133,0.0223,0.0189,0.0347,0.0163,0.0201,0.0295,0.0348,0.0013
676.5,0.0162,0.0127,0.0217,0.0185,0.0339,0.0156,0.0197,0.0283,0.0331,0.0012
677.0,0.0154,0.0120,0.0208,0.0179,0.0330,0.0148,0.0191,0.0269,0.0311,0.0012
677.5,0.0148,0.0116,0.0204,0.0176,0.0324,0.0143,0.0188,0.0260,0.0297,0.0013
678.0,0.0142,0.0110,0.0198,0.0172,0.0317,0.0136,0.0184,0.0249,0.0281,0.0013
678.5,0.0136,0.0105,0.0192,0.0168,0.0310,0.0131,0.0181,0.0239,0.0266,0.0013
679.0,0.0130,0.0099,0.0186,0.0164,0.0303,0.0124,0.0177,0.0228,0.0251,0.0013
679.5,0.0124,0.0095,0.0181,0.0160,0.0297,0.0119,0.0174,0.0220,0.0239,0.0013
680.0,0.0120,0.0090,0.0176,0.0157,0.0291,0.0114,0.0170,0.0212,0.0227,0.0013
680.5,0.0114,0.0085,0.0171,0.0153,0.0285,0.0109,0.0167,0.0203,0.0214,0.0013
681.0,0.0110,0.0082,0.0167,0.0150,0.0281,0.0105,0.0165,0.0196,0.0205,0.0013
681.5,0.0105,0.0077,0.0163,0.0147,0.0275,0.0100,0.0162,0.0188,0.0193,0.0014
682.0,0.0101,0.0073,0.0159,0.0144,0.0271,0.0096,0.0159,0.0182,0.0183,0.0013
682.5,0.0097,0.0070,0.0155,0.0141,0.0267,0.0092,0.0157,0.0175,0.0175,0.0013
683.0,0.0093,0.0066,0.0151,0.0138,0.0262,0.0088,0.0155,0.0169,0.0166,0.0013
683.5,0.0090,0.0064,0.0148,0.0135,0.0259,0.0085,0.0153,0.0164,0.0158,0.0013
684.0,0.0088,0.0061,0.0146,0.0133,0.0256,0.0082,0.0150,0.0160,0.0151,0.0013
684.5,0.0085,0.0059,0.0143,0.0131,0.0253,0.0079,0.0149,0.0156,0.0146,0.0013
685.0,0.0082,0.0056,0.0140,0.0129,0.0250,0.0077,0.0148,0.0152,0.0139,0.0013
685.5,0.0080,0.0054,0.0138,0.0128,0.0248,0.0074,0.0146,0.0148,0.0134,0.0013
686.0,0.0079,0.0053,0.0136,0.0126,0.0246,0.0072,0.0145,0.0145,0.0129,0.0013
686.5,0.0077,0.0050,0.0134,0.0124,0.0243,0.0070,0.0144,0.0142,0.0124,0.0013
687.0,0.0075,0.0049,0.0132,0.0123,0.0241,0.0068,0.0142,0.0139,0.0120,0.0013
687.5,0.0074,0.0047,0.0131,0.0121,0.0239,0.0067,0.0141,0.0137,0.0116,0.0013
688.0,0.0072,0.0046,0.0129,0.0120,0.0238,0.0065,0.0141,0.0135,0.0113,0.0013
688.5,0.0071,0.0044,0.0128,0.0118,0.0236,0.0063,0.0140,0.0132,0.0109,0.0013
689.0,0.0070,0.0043,0.0127,0.0117,0.0234,0.0062,0.0139,0.0131,0.0106,0.0013
689.5,0.0069,0.0043,0.0125,0.0116,0.0233,0.0061,0.0138,0.0130,0.0104,0.0013
690.0,0.0068,0.0041,0.0124,0.0115,0.0232,0.0060,0.0137,0.0128,0.0101,0.0013
690.5,0.0067,0.0040,0.0123,0.0114,0.0230,0.0059,0.0137,0.0127,0.0100,0.0013
691.0,0.0066,0.0039,0.0122,0.0112,0.0228,0.0058,0.0136,0.0126,0.0097,0.0013
691.5,0.0066,0.0039,0.0121,0.0112,0.0228,0.0058,0.0136,0.0126,0.0096,0.0013
692.0,0.0065,0.0038,0.0120,0.0110,0.0225,0.0057,0.0134,0.0124,0.0094,0.0012
692.5,0.0064,0.0037,0.0120,0.0110,0.0225,0.0056,0.0134,0.0123,0.0093,0.0013
693.0,0.0064,0.0037,0.0118,0.0109,0.0223,0.0056,0.0134,0.0122,0.0091,0.0013
693.5,0.0063,0.0036,0.0118,0.0108,0.0222,0.0055,0.0133,0.0121,0.0090,0.0013
694.0,0.0063,0.0035,0.0117,0.0108,0.0221,0.0055,0.0133,0.0120,0.0089,0.0013
694.5,0.0063,0.0035,0.0117,0.0107,0.0219,0.0054,0.0133,0.0120,0.0088,0.0013
695.0,0.0062,0.0034,0.0116,0.0106,0.0218,0.0054,0.0132,0.0119,0.0087,0.0013
695.5,0.0062,0.0034,0.0116,0.0105,0.0217,0.0054,0.0133,0.0118,0.0086,0.0013
696.0,0.0061,0.0033,0.0114,0.0104,0.0215,0.0054,0.0132,0.0117,0.0085,0.0013
696.5,0.0060,0.0033,0.0114,0.0102,0.0213,0.0053,0.0131,0.0116,0.0084,0.0013
697.0,0.0060,0.0032,0.0113,0.0101,0.0212,0.0053,0.0131,0.0115,0.0083,0.0013
697.5,0.0060,0.0032,0.0113,0.0100,0.0210,0.0053,0.0130,0.0115,0.0083,0.0013
698.0,0.0059,0.0032,0.0112,0.0098,0.0208,0.0053,0.0130,0.0114,0.0082,0.0013
698.5,0.0059,0.0032,0.0112,0.0097,0.0207,0.0052,0.0130,0.0113,0.0081,0.0014
699.0,0.0059,0.0031,0.0111,0.0095,0.0206,0.0052,0.0130,0.0112,0.0081,0.0013
699.5,0.0058,0.0031,0.0110,0.0093,0.0204,0.0052,0.0129,0.0111,0.0080,0.0013
700.0,0.0057,0.0031,0.0110,0.0091,0.0202,0.0052,0.0129,0.0110,0.0079,0.0013
700.5,0.0056,0.0031,0.0109,0.0089,0.0200,0.0052,0.0128,0.0108,0.0078,0.0013
701.0,0.0056,0.0031,0.0109,0.0088,0.0199,0.0052,0.0128,0.0107,0.0078,0.0013
701.5,0.0056,0.0031,0.0109,0.0087,0.0197,0.0052,0.0128,0.0106,0.0078,0.0014
702.0,0.0055,0.0030,0.0108,0.0085,0.0195,0.0052,0.0127,0.0104,0.0077,0.0013
702.5,0.0055,0.0031,0.0108,0.0083,0.0193,0.0052,0.0127,0.0103,0.0077,0.0014
703.0,0.0055,0.0030,0.0107,0.0081,0.0192,0.0052,0.0127,0.0102,0.0076,0.0014
703.5,0.0054,0.0030,0.0107,0.0078,0.0190,0.0052,0.0126,0.0101,0.0075,0.0013
704.0,0.0054,0.0030,0.0107,0.0076,0.0188,0.0052,0.0126,0.0100,0.0075,0.0013
704.5,0.0054,0.0029,0.0106,0.0074,0.0187,0.0052,0.0126,0.0099,0.0074,0.0013
705.0,0.0054,0.0029,0.0106,0.0073,0.0185,0.0053,0.0125,0.0099,0.0074,0.0013
705.5,0.0053,0.0029,0.0106,0.0070,0.0184,0.0052,0.0125,0.0099,0.0074,0.0014
706.0,0.0053,0.0029,0.0106,0.0068,0.0182,0.0053,0.0125,0.0098,0.0073,0.0014
706.5,0.0053,0.0029,0.0106,0.0066,0.0180,0.0053,0.0125,0.0098,0.0072,0.0013
707.0,0.0052,0.0029,0.0106,0.0064,0.0179,0.0052,0.0125,0.0098,0.0072,0.0013
707.5,0.0052,0.0028,0.0106,0.0062,0.0178,0.0052,0.0125,0.0098,0.0071,0.0013
708.0,0.0053,0.0028,0.0106,0.0061,0.0176,0.0053,0.0125,0.0099,0.0071,0.0014
708.5,0.0053,0.0028,0.0106,0.0059,0.0176,0.0053,0.0124,0.0099,0.0070,0.0013
709.0,0.0052,0.0028,0.0106,0.0058,0.0174,0.0054,0.0124,0.0099,0.0070,0.0014
709.5,0.0052,0.0028,0.0106,0.0057,0.0173,0.0054,0.0124,0.0099,0.0070,0.0014
710.0,0.0052,0.0028,0.0106,0.0055,0.0172,0.0054,0.0124,0.0098,0.0069,0.0014
710.5,0.0051,0.0028,0.0106,0.0054,0.0171,0.0054,0.0124,0.0098,0.0069,0.0014
711.0,0.0051,0.0028,0.0107,0.0053,0.0170,0.0054,0.0124,0.0098,0.0069,0.0014
711.5,0.0051,0.0027,0.0106,0.0052,0.0169,0.0054,0.0124,0.0097,0.0069,0.0014
712.0,0.0050,0.0027,0.0107,0.0051,0.0168,0.0055,0.0123,0.0097,0.0068,0.0014
712.5,0.0050,0.0027,0.0107,0.0051,0.0167,0.0054,0.0123,0.0097,0.0068,0.0013
713.0,0.0049,0.0027,0.0107,0.0050,0.0167,0.0055,0.0123,0.0096,0.0067,0.0014
713.5,0.0049,0.0027,0.0108,0.0050,0.0165,0.0055,0.0122,0.0096,0.0067,0.0013
714.0,0.0049,0.0027,0.0108,0.0050,0.0165,0.0055,0.0123,0.0096,0.0067,0.0014
714.5,0.0049,0.0027,0.0108,0.0049,0.0164,0.0055,0.0123,0.0096,0.0068,0.0013
715.0,0.0048,0.0027,0.0108,0.0049,0.0164,0.0055,0.0122,0.0095,0.0067,0.0014
715.5,0.0049,0.0027,0.0108,0.0049,0.0163,0.0055,0.0122,0.0095,0.0067,0.0014
716.0,0.0049,0.0027,0.0108,0.0049,0.0163,0.0055,0.0122,0.0095,0.0067,0.0014
716.5,0.0049,0.0027,0.0109,0.0049,0.0163,0.0055,0.0122,0.0095,0.0067,0.0014
717.0,0.0049,0.0027,0.0109,0.0049,0.0163,0.0055,0.0121,0.0095,0.0067,0.0014
717.5,0.0049,0.0027,0.0110,0.0048,0.0163,0.0055,0.0121,0.0095,0.0067,0.0013
718.0,0.0049,0.0027,0.0110,0.0049,0.0164,0.0055,0.0121,0.0095,0.0067,0.0014
718.5,0.0049,0.0026,0.0111,0.0048,0.0163,0.0056,0.0121,0.0094,0.0067,0.0014
719.0,0.0049,0.0026,0.0111,0.0048,0.0163,0.0056,0.0120,0.0094,0.0067,0.0014
719.5,0.0049,0.0026,0.0112,0.0049,0.0163,0.0056,0.0121,0.0094,0.0067,0.0014
720.0,0.0049,0.0026,0.0112,0.0048,0.0163,0.0057,0.0121,0.0094,0.0067,0.0014
720.5,0.0049,0.0026,0.0111,0.0048,0.0163,0.0057,0.0121,0.0094,0.0068,0.0014
721.0,0.0050,0.0027,0.0111,0.0049,0.0163,0.0058,0.0121,0.0094,0.0068,0.0014
721.5,0.0050,0.0027,0.0111,0.0049,0.0163,0.0058,0.0120,0.0095,0.0068,0.0014
722.0,0.0049,0.0026,0.0110,0.0048,0.0163,0.0057,0.0120,0.0094,0.0068,0.0014
722.5,0.0050,0.0027,0.0111,0.0049,0.0163,0.0058,0.0120,0.0094,0.0068,0.0014
723.0,0.0050,0.0026,0.0111,0.0049,0.0164,0.0059,0.0120,0.0095,0.0069,0.0014
723.5,0.0049,0.0026,0.0110,0.0049,0.0164,0.0058,0.0120,0.0094,0.0068,0.0013
724.0,0.0050,0.0026,0.0110,0.0049,0.0164,0.0059,0.0120,0.0095,0.0068,0.0014
724.5,0.0050,0.0026,0.0111,0.0049,0.0164,0.0059,0.0120,0.0095,0.0069,0.0014
725.0,0.0051,0.0026,0.0111,0.0049,0.0164,0.0059,0.0120,0.0095,0.0069,0.0014
725.5,0.0050,0.0026,0.0110,0.0049,0.0164,0.0059,0.0120,0.0095,0.0069,0.0014
726.0,0.0051,0.0026,0.0110,0.0050,0.0164,0.0060,0.0121,0.0095,0.0069,0.0014
726.5,0.0051,0.0026,0.0110,0.0050,0.0164,0.0060,0.0121,0.0095,0.0069,0.0013
727.0,0.0052,0.0026,0.0109,0.0051,0.0164,0.0060,0.0120,0.0096,0.0068,0.0014
727.5,0.0052,0.0026,0.0109,0.0051,0.0164,0.0060,0.0120,0.0096,0.0067,0.0013
728.0,0.0053,0.0026,0.0109,0.0052,0.0164,0.0060,0.0121,0.0096,0.0067,0.0014
728.5,0.0053,0.0026,0.0109,0.0053,0.0165,0.0060,0.0121,0.0096,0.0067,0.0013
729.0,0.0053,0.0026,0.0109,0.0054,0.0165,0.0060,0.0121,0.0096,0.0066,0.0014
729.5,0.0053,0.0026,0.0109,0.0055,0.0165,0.0060,0.0121,0.0097,0.0066,0.0014
730.0,0.0053,0.0026,0.0109,0.0056,0.0164,0.0060,0.0121,0.0096,0.0066,0.0013
730.5,0.0053,0.0025,0.0109,0.0057,0.0164,0.0059,0.0120,0.0096,0.0065,0.0013
731.0,0.0053,0.0026,0.0109,0.0059,0.0164,0.0060,0.0121,0.0096,0.0066,0.0014
731.5,0.0054,0.0025,0.0108,0.0060,0.0163,0.0059,0.0121,0.0097,0.0065,0.0014
732.0,0.0055,0.0024,0.0108,0.0062,0.0163,0.0059,0.0120,0.0096,0.0065,0.0014
732.5,0.0056,0.0025,0.0108,0.0063,0.0163,0.0059,0.0120,0.0097,0.0066,0.0014
733.0,0.0057,0.0024,0.0107,0.0064,0.0163,0.0059,0.0120,0.0097,0.0065,0.0014
733.5,0.0058,0.0024,0.0106,0.0066,0.0163,0.0059,0.0120,0.0097,0.0065,0.0013
734.0,0.0058,0.0023,0.0106,0.0067,0.0163,0.0058,0.0119,0.0097,0.0064,0.0014
734.5,0.0059,0.0024,0.0106,0.0069,0.0163,0.0058,0.0119,0.0097,0.0064,0.0013
735.0,0.0066,0.0035,0.0109,0.0083,0.0196,0.0053,0.0122,0.0099,0.0068,0.0017
735.5,0.0063,0.0034,0.0109,0.0082,0.0196,0.0053,0.0121,0.0098,0.0068,0.0016
736.0,0.0062,0.0034,0.0110,0.0082,0.0196,0.0053,0.0121,0.0098,0.0068,0.0016
736.5,0.0060,0.0034,0.0110,0.0081,0.0197,0.0053,0.0121,0.0098,0.0068,0.0016
737.0,0.0058,0.0034,0.0110,0.0080,0.0197,0.0053,0.0120,0.0098,0.0069,0.0016
737.5,0.0056,0.0033,0.0110,0.0081,0.0197,0.0053,0.0120,0.0098,0.0069,0.0016
738.0,0.0055,0.0033,0.0110,0.0080,0.0198,0.0053,0.0121,0.0098,0.0070,0.0016
738.5,0.0054,0.0032,0.0110,0.0079,0.0198,0.0052,0.0120,0.0098,0.0070,0.0016
739.0,0.0053,0.0032,0.0110,0.0079,0.0198,0.0052,0.0120,0.0098,0.0070,0.0016
739.5,0.0053,0.0032,0.0110,0.0077,0.0200,0.0053,0.0120,0.0098,0.0071,0.0016
740.0,0.0053,0.0032,0.0111,0.0077,0.0201,0.0053,0.0120,0.0098,0.0071,0.0016
740.5,0.0053,0.0032,0.0111,0.0076,0.0202,0.0053,0.0119,0.0098,0.0071,0.0015
741.0,0.0053,0.0032,0.0111,0.0076,0.0203,0.0053,0.0119,0.0098,0.0072,0.0015
741.5,0.0053,0.0031,0.0111,0.0075,0.0203,0.0053,0.0119,0.0098,0.0073,0.0015
742.0,0.0053,0.0031,0.0111,0.0074,0.0203,0.0053,0.0119,0.0098,0.0073,0.0015
742.5,0.0054,0.0031,0.0111,0.0074,0.0202,0.0053,0.0118,0.0098,0.0074,0.0015
743.0,0.0054,0.0030,0.0111,0.0074,0.0201,0.0053,0.0117,0.0098,0.0075,0.0015
743.5,0.0054,0.0031,0.0111,0.0074,0.0199,0.0053,0.0117,0.0097,0.0075,0.0015
744.0,0.0056,0.0031,0.0112,0.0075,0.0200,0.0053,0.0117,0.0098,0.0077,0.0015
744.5,0.0056,0.0031,0.0111,0.0074,0.0199,0.0052,0.0116,0.0097,0.0077,0.0015
745.0,0.0056,0.0030,0.0111,0.0074,0.0199,0.0052,0.0116,0.0097,0.0078,0.0015
745.5,0.0056,0.0030,0.0111,0.0074,0.0197,0.0051,0.0115,0.0097,0.0079,0.0015
746.0,0.0057,0.0031,0.0112,0.0074,0.0195,0.0051,0.0116,0.0097,0.0080,0.0015
746.5,0.0057,0.0031,0.0111,0.0074,0.0192,0.0050,0.0114,0.0097,0.0081,0.0015
747.0,0.0058,0.0031,0.0111,0.0074,0.0192,0.0050,0.0114,0.0097,0.0082,0.0015
747.5,0.0058,0.0031,0.0111,0.0074,0.0190,0.0054,0.0114,0.0097,0.0083,0.0015
748.0,0.0059,0.0031,0.0111,0.0074,0.0190,0.0068,0.0114,0.0097,0.0083,0.0015
748.5,0.0059,0.0031,0.0112,0.0074,0.0190,0.0081,0.0113,0.0097,0.0084,0.0015
749.0,0.0060,0.0030,0.0112,0.0074,0.0189,0.0080,0.0113,0.0098,0.0085,0.0015
749.5,0.0060,0.0030,0.0112,0.0073,0.0186,0.0077,0.0113,0.0097,0.0085,0.0015
750.0,0.0060,0.0029,0.0112,0.0073,0.0183,0.0075,0.0112,0.0097,0.0086,0.0014
750.5,0.0061,0.0029,0.0113,0.0072,0.0180,0.0071,0.0112,0.0097,0.0087,0.0014
751.0,0.0061,0.0029,0.0112,0.0072,0.0180,0.0065,0.0112,0.0097,0.0087,0.0015
751.5,0.0061,0.0029,0.0113,0.0072,0.0180,0.0057,0.0111,0.0097,0.0087,0.0014
752.0,0.0061,0.0029,0.0113,0.0071,0.0179,0.0050,0.0111,0.0097,0.0087,0.0015
752.5,0.0062,0.0029,0.0112,0.0070,0.0177,0.0048,0.0110,0.0097,0.0086,0.0014
753.0,0.0062,0.0028,0.0112,0.0070,0.0175,0.0047,0.0110,0.0097,0.0085,0.0014
753.5,0.0062,0.0028,0.0112,0.0069,0.0173,0.0046,0.0110,0.0097,0.0084,0.0014
754.0,0.0062,0.0028,0.0113,0.0068,0.0172,0.0046,0.0109,0.0097,0.0083,0.0015
754.5,0.0062,0.0028,0.0113,0.0067,0.0169,0.0046,0.0110,0.0097,0.0082,0.0014
755.0,0.0062,0.0028,0.0113,0.0066,0.0167,0.0046,0.0109,0.0097,0.0080,0.0014
755.5,0.0061,0.0027,0.0112,0.0065,0.0164,0.0045,0.0109,0.0097,0.0078,0.0015
756.0,0.0061,0.0027,0.0112,0.0064,0.0162,0.0044,0.0108,0.0096,0.0076,0.0014
756.5,0.0060,0.0027,0.0112,0.0062,0.0158,0.0043,0.0108,0.0096,0.0074,0.0014
757.0,0.0060,0.0026,0.0111,0.0061,0.0157,0.0043,0.0107,0.0096,0.0072,0.0014
757.5,0.0060,0.0026,0.0112,0.0059,0.0152,0.0042,0.0107,0.0096,0.0070,0.0014
758.0,0.0059,0.0026,0.0112,0.0058,0.0150,0.0041,0.0106,0.0096,0.0068,0.0014
758.5,0.0060,0.0025,0.0113,0.0057,0.0149,0.0041,0.0106,0.0096,0.0067,0.0014
759.0,0.0059,0.0025,0.0112,0.0055,0.0147,0.0041,0.0105,0.0096,0.0066,0.0014
759.5,0.0059,0.0025,0.0113,0.0054,0.0147,0.0041,0.0105,0.0097,0.0065,0.0014
760.0,0.0059,0.0024,0.0112,0.0052,0.0145,0.0041,0.0104,0.0096,0.0063,0.0014
760.5,0.0058,0.0023,0.0112,0.0050,0.0144,0.0040,0.0103,0.0096,0.0062,0.0014
761.0,0.0059,0.0023,0.0112,0.0048,0.0142,0.0040,0.0103,0.0096,0.0062,0.0014
761.5,0.0059,0.0022,0.0113,0.0047,0.0141,0.0040,0.0103,0.0096,0.0062,0.0014
762.0,0.0059,0.0021,0.0112,0.0046,0.0141,0.0040,0.0102,0.0096,0.0062,0.0014
762.5,0.0059,0.0022,0.0112,0.0046,0.0140,0.0040,0.0103,0.0096,0.0063,0.0015
763.0,0.0059,0.0021,0.0112,0.0045,0.0139,0.0039,0.0103,0.0096,0.0064,0.0014
763.5,0.0058,0.0021,0.0111,0.0045,0.0137,0.0038,0.0102,0.0096,0.0065,0.0014
764.0,0.0058,0.0021,0.0110,0.0044,0.0137,0.0038,0.0102,0.0095,0.0065,0.0014
764.5,0.0058,0.0021,0.0110,0.0044,0.0137,0.0039,0.0103,0.0096,0.0066,0.0014
765.0,0.0059,0.0021,0.0109,0.0044,0.0137,0.0039,0.0103,0.0096,0.0067,0.0014
765.5,0.0059,0.0021,0.0108,0.0044,0.0136,0.0039,0.0102,0.0095,0.0068,0.0014
766.0,0.0059,0.0022,0.0107,0.0044,0.0135,0.0040,0.0102,0.0096,0.0069,0.0014
766.5,0.0059,0.0022,0.0106,0.0044,0.0136,0.0040,0.0102,0.0096,0.0070,0.0014
767.0,0.0059,0.0022,0.0106,0.0044,0.0135,0.0040,0.0102,0.0096,0.0071,0.0014
767.5,0.0059,0.0022,0.0105,0.0045,0.0135,0.0039,0.0102,0.0096,0.0072,0.0014
768.0,0.0059,0.0022,0.0104,0.0044,0.0134,0.0039,0.0102,0.0096,0.0071,0.0014
768.5,0.0058,0.0022,0.0104,0.0044,0.0134,0.0040,0.0101,0.0096,0.0071,0.0013
769.0,0.0059,0.0022,0.0103,0.0045,0.0134,0.0041,0.0101,0.0096,0.0073,0.0014
769.5,0.0059,0.0022,0.0103,0.0045,0.0134,0.0042,0.0100,0.0095,0.0074,0.0013
770.0,0.0059,0.0022,0.0102,0.0046,0.0134,0.0042,0.0100,0.0095,0.0075,0.0014
770.5,0.0059,0.0022,0.0100,0.0046,0.0134,0.0043,0.0099,0.0095,0.0075,0.0014
771.0,0.0059,0.0022,0.0100,0.0047,0.0133,0.0043,0.0099,0.0095,0.0077,0.0014
771.5,0.0059,0.0022,0.0098,0.0048,0.0134,0.0043,0.0099,0.0095,0.0077,0.0013
772.0,0.0059,0.0022,0.0097,0.0048,0.0134,0.0043,0.0099,0.0095,0.0077,0.0013
772.5,0.0059,0.0023,0.0096,0.0048,0.0133,0.0044,0.0099,0.0094,0.0076,0.0013
773.0,0.0059,0.0023,0.0095,0.0048,0.0133,0.0044,0.0099,0.0094,0.0076,0.0013
773.5,0.0060,0.0024,0.0094,0.0049,0.0133,0.0046,0.0099,0.0093,0.0076,0.0013
774.0,0.0059,0.0023,0.0093,0.0048,0.0132,0.0046,0.0099,0.0093,0.0075,0.0013
774.5,0.0059,0.0023,0.0093,0.0048,0.0132,0.0046,0.0100,0.0092,0.0074,0.0013
775.0,0.0059,0.0023,0.0093,0.0048,0.0132,0.0046,0.0100,0.0092,0.0074,0.0013
